LabVIEW Measurement	
Writer_Version	2
Reader_Version	2
Separator	Tab
Decimal_Separator	.
Multi_Headings	Yes
X_Columns	One
Time_Pref	Absolute
Operator	rsh2268
Date	2024/10/15
Time	16:40:07.7271981999996286184
***End_of_Header***	
	
Channels	3			
Samples	2400	2400	2400	
Date	2024/10/15	2024/10/15	2024/10/15	
Time	16:40:07.7271981999996286184	16:40:07.7271981999996286184	16:40:07.7271981999996286184	
Y_Unit_Label	Volts	Volts	Volts	
X_Dimension	Time	Time	Time	
X0	0.0000000000000000E+0	0.0000000000000000E+0	0.0000000000000000E+0	
Delta_X	0.010000	0.010000	0.010000	
***End_of_Header***				
X_Value	cDAQ2Mod1/ai0	cDAQ2Mod1/ai1	cDAQ2Mod1/ai2	Comment
0.000000	0.002582	-0.000354	-0.000290
0.010000	0.003219	0.000277	-0.000290
0.020000	0.002901	-3.854300E-5	2.840100E-5
0.030000	0.002901	-3.854300E-5	-0.000290
0.040000	0.002901	-3.854300E-5	2.840100E-5
0.050000	0.003219	-3.854300E-5	-0.000928
0.060000	0.002264	0.000277	-0.000290
0.070000	0.002901	0.000593	0.000666
0.080000	0.002264	-3.854300E-5	-0.000609
0.090000	0.002582	-0.000354	-0.000928
0.100000	0.002582	-0.000354	-0.000609
0.110000	0.002264	0.000277	-0.000290
0.120000	0.002901	-3.854300E-5	-0.000290
0.130000	0.002582	0.000593	-0.000290
0.140000	0.003219	-0.000354	2.840100E-5
0.150000	0.002582	0.000277	0.000347
0.160000	0.002582	-3.854300E-5	-0.000609
0.170000	0.002901	0.000277	-0.000928
0.180000	0.002582	-3.854300E-5	0.000347
0.190000	0.003219	-3.854300E-5	-0.000928
0.200000	0.002582	-3.854300E-5	-0.000928
0.210000	0.003538	-3.854300E-5	0.000347
0.220000	0.003219	-3.854300E-5	-0.000609
0.230000	0.002901	-0.000354	-0.000609
0.240000	0.002264	-0.000354	-0.000928
0.250000	0.002901	-3.854300E-5	-0.000290
0.260000	0.001945	0.000593	-0.000928
0.270000	0.002264	-0.000354	-0.000928
0.280000	0.003538	0.000593	0.000985
0.290000	0.002582	-0.000354	-0.000609
0.300000	0.003219	-3.854300E-5	2.840100E-5
0.310000	0.003219	-3.854300E-5	-0.000290
0.320000	0.003219	0.000909	-0.000290
0.330000	0.002901	-3.854300E-5	2.840100E-5
0.340000	0.002901	-3.854300E-5	-0.000290
0.350000	0.002901	0.000593	0.000347
0.360000	0.002582	-3.854300E-5	-0.000609
0.370000	0.002582	-3.854300E-5	-0.000609
0.380000	0.002264	-3.854300E-5	-0.000609
0.390000	0.003219	0.000277	-0.000609
0.400000	0.002901	0.000593	-0.000290
0.410000	0.002582	-0.000354	-0.000609
0.420000	0.002901	-3.854300E-5	2.840100E-5
0.430000	0.002901	0.000277	-0.000290
0.440000	0.002901	-0.000354	-0.000928
0.450000	0.002582	0.000593	2.840100E-5
0.460000	0.002582	0.000277	-0.000290
0.470000	0.003219	0.000277	-0.000609
0.480000	0.002901	-0.000670	-0.000290
0.490000	0.002264	0.000277	2.840100E-5
0.500000	0.002264	0.000277	0.000347
0.510000	0.002582	0.000593	-0.000928
0.520000	0.002264	0.000277	-0.000928
0.530000	0.003219	0.000277	2.840100E-5
0.540000	0.002264	-3.854300E-5	-0.001247
0.550000	0.002264	0.000909	0.000666
0.560000	0.002582	-0.000986	-0.000928
0.570000	0.002582	-0.000354	2.840100E-5
0.580000	0.002264	-0.000354	-0.000609
0.590000	0.002582	-3.854300E-5	-0.000928
0.600000	0.002264	-3.854300E-5	-0.000609
0.610000	0.001945	-0.000670	-0.000609
0.620000	0.002901	0.000277	-0.000928
0.630000	0.002582	0.000593	-0.000928
0.640000	0.002901	0.000593	-0.000928
0.650000	0.002264	-3.854300E-5	-0.000609
0.660000	0.002264	-3.854300E-5	-0.001247
0.670000	0.002582	-3.854300E-5	-0.000609
0.680000	0.002264	-3.854300E-5	-0.001247
0.690000	0.002582	-3.854300E-5	-0.000609
0.700000	0.002582	-3.854300E-5	-0.000609
0.710000	0.002582	0.000277	2.840100E-5
0.720000	0.002582	-3.854300E-5	-0.000609
0.730000	0.002901	-0.000354	-0.000609
0.740000	0.002264	-0.000354	-0.000928
0.750000	0.002582	-3.854300E-5	2.840100E-5
0.760000	0.002264	0.000277	-0.000928
0.770000	0.002901	-0.000354	-0.000290
0.780000	0.002582	-0.000354	-0.000928
0.790000	0.002582	-3.854300E-5	-0.000928
0.800000	0.002901	-0.000354	-0.000928
0.810000	0.002582	-0.000354	-0.000609
0.820000	0.002582	0.000277	-0.000290
0.830000	0.002901	-3.854300E-5	-0.000609
0.840000	0.002264	-0.000354	-0.000928
0.850000	0.001945	0.000277	-0.000928
0.860000	0.002264	-0.000354	-0.000928
0.870000	0.002264	-0.000354	-0.000609
0.880000	0.001945	-3.854300E-5	-0.000609
0.890000	0.001945	-3.854300E-5	-0.000609
0.900000	0.002901	0.000593	-0.000290
0.910000	0.002582	-3.854300E-5	-0.000609
0.920000	0.002264	-0.000354	-0.000609
0.930000	0.002901	0.000909	-0.000290
0.940000	0.002264	-3.854300E-5	-0.000290
0.950000	0.002582	0.000277	-0.000928
0.960000	0.002264	-0.000354	-0.000290
0.970000	0.002582	0.000277	-0.000609
0.980000	0.002264	-0.000354	-0.000928
0.990000	0.002582	-0.000354	-0.000928
1.000000	0.002582	-3.854300E-5	-0.000609
1.010000	0.002582	0.000277	-0.000609
1.020000	0.002264	-0.000670	-0.000928
1.030000	0.001945	-0.000670	-0.000609
1.040000	0.002582	-0.000354	-0.000609
1.050000	0.002582	0.000593	-0.000928
1.060000	0.001945	-3.854300E-5	-0.000928
1.070000	0.002582	0.000277	-0.000290
1.080000	0.002582	-3.854300E-5	-0.000290
1.090000	0.001945	-0.000670	-0.001247
1.100000	0.002264	0.000277	-0.000290
1.110000	0.002264	-0.000670	-0.000928
1.120000	0.002582	0.000593	2.840100E-5
1.130000	0.002901	0.000277	2.840100E-5
1.140000	0.001945	-0.000354	2.840100E-5
1.150000	0.002582	-3.854300E-5	-0.000609
1.160000	0.001945	-0.000354	-0.000928
1.170000	0.002582	-3.854300E-5	-0.000290
1.180000	0.002582	-3.854300E-5	-0.000290
1.190000	0.002901	-0.000354	-0.000609
1.200000	0.002582	-0.000354	-0.000609
1.210000	0.002264	-0.000354	-0.001247
1.220000	0.002264	-0.000354	-0.000609
1.230000	0.001945	-3.854300E-5	-0.000609
1.240000	0.002901	-0.000354	-0.000928
1.250000	0.002901	-3.854300E-5	0.000666
1.260000	0.003219	-3.854300E-5	-0.000290
1.270000	0.002582	-0.000354	-0.000928
1.280000	0.001945	-3.854300E-5	-0.000928
1.290000	0.002582	0.000277	-0.001247
1.300000	0.002264	-3.854300E-5	-0.000290
1.310000	0.002264	-3.854300E-5	-0.000609
1.320000	0.002264	-3.854300E-5	-0.000290
1.330000	0.002264	-3.854300E-5	-0.000609
1.340000	0.001945	-0.000354	-0.000928
1.350000	0.003219	0.000277	-0.000609
1.360000	0.002582	-3.854300E-5	-0.000290
1.370000	0.002582	-0.000354	-0.001247
1.380000	0.002264	-3.854300E-5	-0.000609
1.390000	0.002264	-3.854300E-5	-0.000609
1.400000	0.002582	0.000277	-0.000609
1.410000	0.002264	-3.854300E-5	-0.000609
1.420000	0.003219	0.000593	-0.000290
1.430000	0.001945	-3.854300E-5	-0.000609
1.440000	0.002264	-0.000354	-0.000928
1.450000	0.002582	-0.000354	-0.000290
1.460000	0.002264	0.000909	-0.000609
1.470000	0.003538	0.000277	-0.000928
1.480000	0.002264	-3.854300E-5	-0.000928
1.490000	0.003219	0.000277	2.840100E-5
1.500000	0.002582	-3.854300E-5	-0.000609
1.510000	0.001945	-3.854300E-5	-0.000928
1.520000	0.002264	-3.854300E-5	-0.000928
1.530000	0.002582	-3.854300E-5	-0.000290
1.540000	0.002264	-3.854300E-5	-0.000928
1.550000	0.003219	-3.854300E-5	-0.000290
1.560000	0.002582	-0.000354	-0.000290
1.570000	0.002901	-3.854300E-5	-0.000928
1.580000	0.002264	-3.854300E-5	-0.000928
1.590000	0.002582	0.000593	-0.000609
1.600000	0.002901	-0.000354	-0.000609
1.610000	0.002901	-0.000354	-0.000609
1.620000	0.002582	-0.000354	-0.000609
1.630000	0.002582	-3.854300E-5	-0.000609
1.640000	0.003219	-0.000354	-0.000609
1.650000	0.002264	-0.000354	-0.001566
1.660000	0.002264	-3.854300E-5	-0.000609
1.670000	0.002582	0.000277	0.000347
1.680000	0.001945	-3.854300E-5	-0.000290
1.690000	0.002901	-0.000354	-0.000609
1.700000	0.002582	-3.854300E-5	-0.000609
1.710000	0.002901	0.000277	-0.000290
1.720000	0.003219	0.000593	2.840100E-5
1.730000	0.002582	-0.000354	-0.000609
1.740000	0.002582	-3.854300E-5	-0.000609
1.750000	0.003219	-3.854300E-5	-0.000609
1.760000	0.002582	0.000277	-0.000928
1.770000	0.002264	-3.854300E-5	-0.000609
1.780000	0.002582	-0.000670	0.000347
1.790000	0.002582	-3.854300E-5	-0.000928
1.800000	0.002264	-3.854300E-5	2.840100E-5
1.810000	0.002901	-3.854300E-5	-0.000928
1.820000	0.002901	-3.854300E-5	-0.000290
1.830000	0.002901	0.000277	-0.000290
1.840000	0.002582	-3.854300E-5	-0.000290
1.850000	0.002901	0.000593	-0.000609
1.860000	0.002582	-0.000354	-0.000290
1.870000	0.002582	-3.854300E-5	-0.000290
1.880000	0.003219	0.000909	-0.000290
1.890000	0.002901	-3.854300E-5	-0.000290
1.900000	0.002901	-3.854300E-5	-0.000609
1.910000	0.002901	-3.854300E-5	-0.000290
1.920000	0.002582	0.000593	2.840100E-5
1.930000	0.002901	0.000277	-0.000290
1.940000	0.002264	-3.854300E-5	-0.000928
1.950000	0.002582	-3.854300E-5	-0.000928
1.960000	0.002901	-3.854300E-5	-0.000290
1.970000	0.002582	-3.854300E-5	-0.000290
1.980000	0.001945	0.000593	-0.000609
1.990000	0.002582	0.000593	-0.000290
2.000000	0.002582	0.000277	0.000347
2.010000	0.002264	0.000593	-0.000290
2.020000	0.002582	0.000593	0.000347
2.030000	0.002901	-3.854300E-5	-0.000290
2.040000	0.002582	-3.854300E-5	-0.000609
2.050000	0.002582	0.000593	0.000347
2.060000	0.002582	-3.854300E-5	-0.001247
2.070000	0.002901	-3.854300E-5	-0.000928
2.080000	0.002582	-3.854300E-5	-0.000290
2.090000	0.002582	-3.854300E-5	-0.000609
2.100000	0.002264	0.000277	-0.000290
2.110000	0.003219	-3.854300E-5	-0.000609
2.120000	0.002582	-3.854300E-5	-0.000609
2.130000	0.003219	-3.854300E-5	-0.000290
2.140000	0.002582	-3.854300E-5	-0.000928
2.150000	0.002264	-3.854300E-5	-0.000290
2.160000	0.002264	-3.854300E-5	-0.000290
2.170000	0.002901	-3.854300E-5	0.000347
2.180000	0.002582	-3.854300E-5	2.840100E-5
2.190000	0.002582	0.000277	-0.000290
2.200000	0.002582	0.000593	0.000347
2.210000	0.002582	-3.854300E-5	-0.000290
2.220000	0.002582	0.000277	2.840100E-5
2.230000	0.002582	0.000277	-0.000290
2.240000	0.002901	-3.854300E-5	-0.000609
2.250000	0.002264	-3.854300E-5	-0.000290
2.260000	0.002901	-0.000354	-0.000290
2.270000	0.002582	-0.000354	-0.000609
2.280000	0.002264	-3.854300E-5	-0.000290
2.290000	0.002264	0.000593	-0.000928
2.300000	0.002264	-3.854300E-5	2.840100E-5
2.310000	0.002901	0.000593	-0.000290
2.320000	0.002582	-3.854300E-5	2.840100E-5
2.330000	0.002264	-3.854300E-5	-0.000928
2.340000	0.002264	-0.000670	-0.000609
2.350000	0.002582	-3.854300E-5	-0.000290
2.360000	0.002582	-0.000670	-0.000928
2.370000	0.002901	-3.854300E-5	-0.000609
2.380000	0.002264	-3.854300E-5	-0.000290
2.390000	0.002582	-0.000354	-0.000928
2.400000	0.002264	-3.854300E-5	-0.000290
2.410000	0.002582	0.000277	-0.000609
2.420000	0.002582	0.000277	-0.000290
2.430000	0.002582	-0.000354	-0.001566
2.440000	0.003219	0.000277	-0.000290
2.450000	0.002582	-0.000354	-0.000609
2.460000	0.001945	-3.854300E-5	-0.000290
2.470000	0.002582	-0.000354	-0.000928
2.480000	0.002901	-0.000354	-0.000290
2.490000	0.002582	-3.854300E-5	-0.000609
2.500000	0.002901	-3.854300E-5	-0.000290
2.510000	0.002582	0.000277	-0.000290
2.520000	0.002901	-0.000354	-0.000290
2.530000	0.002582	-3.854300E-5	-0.000928
2.540000	0.001945	-0.000670	-0.000928
2.550000	0.002582	-3.854300E-5	-0.000609
2.560000	0.002264	-3.854300E-5	-0.000609
2.570000	0.002582	-0.000354	-0.001247
2.580000	0.001945	-0.000670	-0.000609
2.590000	0.002582	-3.854300E-5	-0.000290
2.600000	0.002582	-0.000354	-0.000928
2.610000	0.002582	-0.000670	-0.001247
2.620000	0.002264	0.000277	-0.000928
2.630000	0.003219	0.000277	-0.000290
2.640000	0.002264	-0.000354	-0.000609
2.650000	0.002264	-3.854300E-5	-0.000290
2.660000	0.002264	0.000593	-0.000290
2.670000	0.002582	0.000277	-0.000609
2.680000	0.002582	-0.000354	-0.000609
2.690000	0.002582	-0.000354	-0.001566
2.700000	0.002582	-0.000354	-0.000609
2.710000	0.002582	-0.000354	-0.000928
2.720000	0.001945	-0.000354	-0.000928
2.730000	0.002582	-3.854300E-5	-0.000609
2.740000	0.002264	-3.854300E-5	-0.000609
2.750000	0.002582	-0.000670	-0.000609
2.760000	0.002264	-0.000354	-0.000290
2.770000	0.002901	0.000593	-0.000609
2.780000	0.002901	0.000277	-0.000609
2.790000	0.002582	-3.854300E-5	-0.000609
2.800000	0.002901	-0.000354	0.000347
2.810000	0.002264	-3.854300E-5	-0.000928
2.820000	0.002264	-0.000354	-0.000290
2.830000	0.002582	-3.854300E-5	-0.000290
2.840000	0.002264	-0.000354	-0.001247
2.850000	0.003219	0.000909	-0.000290
2.860000	0.002901	-3.854300E-5	-0.000609
2.870000	0.002901	0.000593	-0.000609
2.880000	0.002901	-0.000354	-0.000290
2.890000	0.002264	-3.854300E-5	-0.000928
2.900000	0.002582	0.000593	-0.000609
2.910000	0.002264	-0.000354	-0.001566
2.920000	0.002264	-3.854300E-5	-0.001247
2.930000	0.002264	0.000593	2.840100E-5
2.940000	0.002264	-3.854300E-5	-0.001247
2.950000	0.002264	-3.854300E-5	-0.000609
2.960000	0.002264	-3.854300E-5	-0.000928
2.970000	0.002901	-0.000354	-0.000290
2.980000	0.002582	-0.000354	-0.000609
2.990000	0.002582	-3.854300E-5	-0.000609
3.000000	0.002901	-3.854300E-5	-0.000609
3.010000	0.002901	-0.000354	-0.000609
3.020000	0.002264	-0.000354	-0.000609
3.030000	0.002264	0.000909	-0.000290
3.040000	0.002264	-0.000354	-0.000928
3.050000	0.002582	-0.000354	-0.000928
3.060000	0.002264	-0.000354	-0.000928
3.070000	0.002582	-3.854300E-5	-0.000609
3.080000	0.002901	-0.000354	-0.000928
3.090000	0.002901	0.000277	-0.000609
3.100000	0.002582	0.000593	0.000347
3.110000	0.002264	-0.000354	-0.000609
3.120000	0.002264	-3.854300E-5	2.840100E-5
3.130000	0.002582	-3.854300E-5	-0.000928
3.140000	0.002582	0.000277	-0.000928
3.150000	0.002582	0.000277	2.840100E-5
3.160000	0.002582	-0.000670	-0.000609
3.170000	0.002582	-3.854300E-5	-0.000290
3.180000	0.003219	0.000909	-0.000290
3.190000	0.002264	-3.854300E-5	-0.001566
3.200000	0.002264	-0.000670	-0.000928
3.210000	0.002901	0.000277	-0.000290
3.220000	0.003219	0.000277	-0.000290
3.230000	0.002582	-3.854300E-5	-0.000609
3.240000	0.002582	-3.854300E-5	-0.000928
3.250000	0.002901	0.000277	-0.000290
3.260000	0.002264	-0.000354	-0.000609
3.270000	0.002264	0.000593	2.840100E-5
3.280000	0.002582	-3.854300E-5	-0.000290
3.290000	0.002264	-3.854300E-5	-0.000928
3.300000	0.003219	0.000593	-0.000290
3.310000	0.002582	-3.854300E-5	-0.000609
3.320000	0.002264	-3.854300E-5	-0.000928
3.330000	0.002582	-0.000354	-0.000928
3.340000	0.002582	-0.000670	-0.000928
3.350000	0.002582	-3.854300E-5	-0.000290
3.360000	0.002901	-3.854300E-5	-0.000609
3.370000	0.001945	-0.000354	-0.000609
3.380000	0.002582	-0.000354	0.000347
3.390000	0.002582	0.000277	-0.000928
3.400000	0.002264	-0.000354	-0.000290
3.410000	0.002264	-3.854300E-5	-0.000290
3.420000	0.002582	0.000277	-0.000290
3.430000	0.002582	0.000277	-0.000609
3.440000	0.002582	-0.000354	-0.000609
3.450000	0.002264	-3.854300E-5	-0.000609
3.460000	0.002901	-3.854300E-5	-0.000290
3.470000	0.002901	-3.854300E-5	-0.000609
3.480000	0.002264	-0.000354	-0.000609
3.490000	0.003219	-3.854300E-5	-0.000290
3.500000	0.002582	-0.000354	-0.000290
3.510000	0.002582	-3.854300E-5	-0.000290
3.520000	0.002582	-0.000354	-0.000928
3.530000	0.002582	0.000593	-0.000609
3.540000	0.002582	-3.854300E-5	-0.000290
3.550000	0.002901	0.000593	-0.000609
3.560000	0.002582	-3.854300E-5	-0.000290
3.570000	0.001945	-3.854300E-5	-0.000609
3.580000	0.002264	-0.000354	-0.001247
3.590000	0.002582	-3.854300E-5	-0.000290
3.600000	0.003219	0.000277	-0.000290
3.610000	0.003219	0.000593	0.000666
3.620000	0.002901	-0.000354	-0.001566
3.630000	0.002582	-0.000354	-0.000290
3.640000	0.002264	-3.854300E-5	-0.000290
3.650000	0.002582	0.000277	-0.000290
3.660000	0.002582	-3.854300E-5	-0.000928
3.670000	0.002582	0.000277	-0.000609
3.680000	0.002901	0.000593	-0.000290
3.690000	0.002264	0.000277	-0.000928
3.700000	0.002264	-3.854300E-5	-0.000290
3.710000	0.003219	0.000593	-0.000290
3.720000	0.002582	-0.000354	-0.000609
3.730000	0.002901	-0.000354	2.840100E-5
3.740000	0.002582	-3.854300E-5	-0.000290
3.750000	0.003219	0.000277	-0.000290
3.760000	0.002582	-3.854300E-5	-0.000609
3.770000	0.002582	-3.854300E-5	0.000347
3.780000	0.002582	0.000593	-0.000290
3.790000	0.002901	-3.854300E-5	-0.000609
3.800000	0.002264	0.000277	-0.000609
3.810000	0.003219	0.000277	-0.000290
3.820000	0.002901	0.000909	-0.000609
3.830000	0.002901	-3.854300E-5	-0.000290
3.840000	0.002582	-3.854300E-5	-0.000928
3.850000	0.002901	0.000593	2.840100E-5
3.860000	0.002264	0.000277	-0.000609
3.870000	0.003219	-3.854300E-5	2.840100E-5
3.880000	0.002901	0.000593	-0.000290
3.890000	0.002582	0.000277	-0.000290
3.900000	0.003219	-0.000354	-0.000290
3.910000	0.002582	-3.854300E-5	-0.000290
3.920000	0.002901	0.000593	-0.000290
3.930000	0.002582	-3.854300E-5	-0.001247
3.940000	0.002582	-0.000354	-0.000928
3.950000	0.002901	0.000277	0.000666
3.960000	0.002264	-3.854300E-5	-0.000609
3.970000	0.002264	-3.854300E-5	-0.000609
3.980000	0.001945	-3.854300E-5	-0.000609
3.990000	0.001945	0.000909	-0.000290
4.000000	0.002582	-3.854300E-5	-0.000290
4.010000	0.001945	0.000277	-0.000928
4.020000	0.002582	0.000593	-0.000290
4.030000	0.003219	0.000277	-0.000290
4.040000	0.002582	-3.854300E-5	-0.000290
4.050000	0.003538	0.000909	0.000347
4.060000	0.002264	-3.854300E-5	2.840100E-5
4.070000	0.002901	-0.000354	-0.000609
4.080000	0.003219	0.000277	-0.000609
4.090000	0.002264	-0.000354	-0.000609
4.100000	0.002582	0.000277	-0.000290
4.110000	0.002582	0.000593	-0.000290
4.120000	0.002264	-3.854300E-5	-0.000609
4.130000	0.002582	-0.000354	-0.000928
4.140000	0.002264	-0.000670	-0.001247
4.150000	0.002264	-0.000354	-0.000928
4.160000	0.002901	-0.000354	-0.000928
4.170000	0.002582	-3.854300E-5	-0.000609
4.180000	0.002901	0.000593	-0.000609
4.190000	0.002901	0.000277	-0.000290
4.200000	0.002901	-3.854300E-5	2.840100E-5
4.210000	0.002582	0.000593	-0.001566
4.220000	0.002264	-3.854300E-5	2.840100E-5
4.230000	0.002582	-3.854300E-5	2.840100E-5
4.240000	0.002582	0.000909	2.840100E-5
4.250000	0.003219	-3.854300E-5	-0.000609
4.260000	0.002582	-0.000354	-0.000290
4.270000	0.002901	-0.000354	-0.000928
4.280000	0.002582	-0.000354	-0.000928
4.290000	0.001626	-0.000354	-0.000609
4.300000	0.002901	-0.000354	-0.000290
4.310000	0.002582	0.000277	-0.000609
4.320000	0.002901	-0.000354	-0.000928
4.330000	0.002901	-3.854300E-5	2.840100E-5
4.340000	0.002582	-0.000354	-0.000928
4.350000	0.002582	-0.000354	-0.000609
4.360000	0.002901	-0.000354	-0.000609
4.370000	0.002901	-3.854300E-5	-0.000290
4.380000	0.003219	0.000593	-0.000290
4.390000	0.002582	-3.854300E-5	-0.000609
4.400000	0.002582	-3.854300E-5	2.840100E-5
4.410000	0.001945	-3.854300E-5	-0.000609
4.420000	0.002582	-0.000354	-0.000928
4.430000	0.002582	-0.000354	-0.000928
4.440000	0.002582	-0.000354	-0.000290
4.450000	0.001945	-3.854300E-5	-0.000609
4.460000	0.002582	-0.000354	-0.001247
4.470000	0.002582	-0.000354	-0.000290
4.480000	0.002264	0.000277	2.840100E-5
4.490000	0.002901	-3.854300E-5	-0.000609
4.500000	0.002901	-3.854300E-5	-0.000928
4.510000	0.002901	0.000909	-0.000609
4.520000	0.002264	-3.854300E-5	-0.000609
4.530000	0.001945	-0.000354	-0.000290
4.540000	0.002582	-3.854300E-5	-0.000609
4.550000	0.002582	-3.854300E-5	-0.000290
4.560000	0.003219	-0.000354	-0.000290
4.570000	0.002264	0.000593	-0.000290
4.580000	0.002582	-3.854300E-5	-0.000290
4.590000	0.001945	-3.854300E-5	2.840100E-5
4.600000	0.002264	0.000277	-0.001247
4.610000	0.001945	0.000277	-0.000290
4.620000	0.002582	0.000277	-0.000609
4.630000	0.002582	0.000593	-0.000609
4.640000	0.002264	-3.854300E-5	-0.000928
4.650000	0.002264	-0.000354	-0.000290
4.660000	0.002264	-3.854300E-5	-0.000609
4.670000	0.002901	0.000277	-0.000609
4.680000	0.002582	-3.854300E-5	2.840100E-5
4.690000	0.002582	0.000277	-0.000928
4.700000	0.002901	0.000593	2.840100E-5
4.710000	0.002901	-0.000670	-0.000928
4.720000	0.002901	-3.854300E-5	-0.000609
4.730000	0.002264	-0.000670	-0.000609
4.740000	0.001626	-0.000670	-0.001884
4.750000	0.002582	-3.854300E-5	-0.000290
4.760000	0.002264	-0.000354	-0.000928
4.770000	0.002901	0.000909	-0.000290
4.780000	0.002264	-0.000670	-0.001566
4.790000	0.002582	-0.000354	-0.000609
4.800000	0.003219	-0.000354	-0.000928
4.810000	0.002264	-0.000670	-0.000928
4.820000	0.003538	0.000277	-0.000290
4.830000	0.002264	-3.854300E-5	-0.000609
4.840000	0.003538	-0.000354	-0.000609
4.850000	0.002582	-0.000354	-0.000609
4.860000	0.002582	-0.000354	-0.001247
4.870000	0.002264	-3.854300E-5	-0.000609
4.880000	0.002264	-0.000354	-0.001247
4.890000	0.003219	-0.000354	-0.001247
4.900000	0.002264	-3.854300E-5	-0.000609
4.910000	0.002582	-0.000354	-0.000609
4.920000	0.001945	-0.000354	-0.000609
4.930000	0.002264	-0.000670	-0.000609
4.940000	0.003219	-0.000354	-0.000928
4.950000	0.003538	-0.000670	-0.000609
4.960000	0.002901	-0.000670	-0.001566
4.970000	0.001945	0.000277	-0.000928
4.980000	0.003538	-0.000354	-0.000609
4.990000	0.003538	-0.000986	-0.002203
5.000000	0.002901	-0.000354	-0.001247
5.010000	0.003538	-0.000354	-0.000609
5.020000	0.003538	-0.000670	-0.001884
5.030000	0.003219	-0.000986	-0.001884
5.040000	0.002901	-0.000986	-0.001566
5.050000	0.002264	-0.000670	-0.000928
5.060000	0.002901	-0.000670	-0.001884
5.070000	0.003857	-0.000670	-0.002203
5.080000	0.003538	-0.000670	-0.001247
5.090000	0.004494	-0.000670	-0.001566
5.100000	0.003219	-0.001302	-0.001884
5.110000	0.003538	-0.000670	-0.001566
5.120000	0.003538	-0.001618	-0.002203
5.130000	0.004494	-0.001302	-0.002203
5.140000	0.006087	-0.001934	-0.002522
5.150000	0.005131	-0.001302	-0.001884
5.160000	0.003538	-0.000986	-0.002203
5.170000	0.003857	-0.001618	-0.002203
5.180000	0.004175	-0.001618	-0.001884
5.190000	0.003538	-0.001934	-0.002203
5.200000	0.005131	-0.001934	-0.003160
5.210000	0.005769	-0.002566	-0.003478
5.220000	0.003538	-0.001934	-0.003160
5.230000	0.006406	-0.002250	-0.003160
5.240000	0.002582	-0.001934	-0.003797
5.250000	0.008318	-0.002250	-0.002841
5.260000	0.008318	-0.002881	-0.003478
5.270000	0.007362	-0.002566	-0.003478
5.280000	0.007680	-0.002566	-0.003478
5.290000	0.004175	-0.003197	-0.003478
5.300000	0.006406	-0.002881	-0.004435
5.310000	0.007043	-0.002881	-0.004435
5.320000	0.007680	-0.003513	-0.004754
5.330000	0.009274	-0.003513	-0.004754
5.340000	0.007043	-0.004145	-0.005710
5.350000	0.011823	-0.004461	-0.005073
5.360000	0.010230	-0.004777	-0.006029
5.370000	0.012460	-0.005093	-0.005710
5.380000	0.011504	-0.004777	-0.006029
5.390000	0.007999	-0.005093	-0.006029
5.400000	0.015647	-0.005409	-0.006667
5.410000	0.015647	-0.006040	-0.007942
5.420000	0.011504	-0.006040	-0.006667
5.430000	0.011504	-0.006040	-0.006667
5.440000	0.013735	-0.006672	-0.007623
5.450000	0.011823	-0.006672	-0.008261
5.460000	0.013735	-0.007304	-0.008579
5.470000	0.015965	-0.007620	-0.009217
5.480000	0.015965	-0.007936	-0.010492
5.490000	0.018514	-0.008883	-0.010492
5.500000	0.016284	-0.009199	-0.010173
5.510000	0.017877	-0.009515	-0.011767
5.520000	0.019152	-0.009831	-0.012086
5.530000	0.017558	-0.010147	-0.012724
5.540000	0.019470	-0.010147	-0.014318
5.550000	0.019470	-0.011726	-0.014637
5.560000	0.019470	-0.011410	-0.015274
5.570000	0.023613	-0.012990	-0.015593
5.580000	0.020108	-0.012990	-0.016868
5.590000	0.018196	-0.013937	-0.016868
5.600000	0.020745	-0.014253	-0.017187
5.610000	0.020108	-0.015201	-0.018462
5.620000	0.024250	-0.015517	-0.018781
5.630000	0.019470	-0.016148	-0.018462
5.640000	0.026480	-0.016148	-0.019100
5.650000	0.023294	-0.016780	-0.020694
5.660000	0.025206	-0.018044	-0.021332
5.670000	0.029667	-0.017728	-0.021651
5.680000	0.029348	-0.018676	-0.022607
5.690000	0.027436	-0.019307	-0.023245
5.700000	0.019470	-0.019939	-0.022926
5.710000	0.025524	-0.020255	-0.024201
5.720000	0.025843	-0.021834	-0.024839
5.730000	0.026162	-0.021518	-0.024839
5.740000	0.029030	-0.022466	-0.026433
5.750000	0.028711	-0.023098	-0.027070
5.760000	0.025524	-0.023098	-0.027389
5.770000	0.022338	-0.024045	-0.027389
5.780000	0.027436	-0.024677	-0.028027
5.790000	0.030623	-0.025941	-0.029621
5.800000	0.026480	-0.025941	-0.030258
5.810000	0.027436	-0.026573	-0.031534
5.820000	0.031260	-0.027520	-0.031852
5.830000	0.031897	-0.028468	-0.032809
5.840000	0.030304	-0.029415	-0.032490
5.850000	0.031260	-0.029731	-0.032809
5.860000	0.032535	-0.030679	-0.033446
5.870000	0.027755	-0.031311	-0.033128
5.880000	0.028711	-0.032574	-0.033446
5.890000	0.029667	-0.032574	-0.034722
5.900000	0.030941	-0.033206	-0.034084
5.910000	0.030304	-0.034154	-0.035359
5.920000	0.031579	-0.034470	-0.035997
5.930000	0.031579	-0.035417	-0.036316
5.940000	0.029667	-0.035101	-0.036635
5.950000	0.037952	-0.035417	-0.036316
5.960000	0.035402	-0.036365	-0.036635
5.970000	0.029667	-0.036365	-0.037272
5.980000	0.031897	-0.037313	-0.038866
5.990000	0.030941	-0.038260	-0.038547
6.000000	0.033491	-0.038576	-0.036953
6.010000	0.037633	-0.038892	-0.037591
6.020000	0.037633	-0.038892	-0.037910
6.030000	0.032535	-0.039208	-0.038229
6.040000	0.033809	-0.039524	-0.038866
6.050000	0.033491	-0.040155	-0.038547
6.060000	0.034446	-0.041103	-0.039504
6.070000	0.032535	-0.041103	-0.038547
6.080000	0.032535	-0.041735	-0.039504
6.090000	0.035084	-0.042051	-0.041098
6.100000	0.039226	-0.043630	-0.041417
6.110000	0.035084	-0.043630	-0.042373
6.120000	0.038270	-0.043946	-0.041735
6.130000	0.034128	-0.044578	-0.040141
6.140000	0.030304	-0.045210	-0.040141
6.150000	0.033491	-0.045210	-0.039185
6.160000	0.037952	-0.045525	-0.036635
6.170000	0.032853	-0.045210	-0.036953
6.180000	0.037952	-0.045525	-0.040141
6.190000	0.035084	-0.044262	-0.040141
6.200000	0.035721	-0.045841	-0.033446
6.210000	0.037314	-0.045525	-0.036953
6.220000	0.035084	-0.046157	-0.034084
6.230000	0.033491	-0.045841	-0.038547
6.240000	0.032535	-0.045841	-0.035359
6.250000	0.036996	-0.046789	-0.035678
6.260000	0.035721	-0.046473	-0.040460
6.270000	0.038907	-0.046157	-0.043011
6.280000	0.039226	-0.046473	-0.038866
6.290000	0.035721	-0.047421	-0.035997
6.300000	0.036358	-0.048684	-0.030258
6.310000	0.036358	-0.049316	-0.035359
6.320000	0.035402	-0.049948	-0.029621
6.330000	0.036677	-0.050895	-0.028664
6.340000	0.036677	-0.051211	-0.027389
6.350000	0.039226	-0.050580	-0.032171
6.360000	0.036040	-0.050580	-0.031534
6.370000	0.037314	-0.051211	-0.025476
6.380000	0.039545	-0.051843	-0.028346
6.390000	0.034128	-0.052791	-0.026751
6.400000	0.037633	-0.053107	-0.026751
6.410000	0.034765	-0.054686	-0.028027
6.420000	0.036677	-0.055318	-0.027708
6.430000	0.036358	-0.055634	-0.025795
6.440000	0.037633	-0.055949	-0.028983
6.450000	0.035084	-0.057213	-0.036635
6.460000	0.038589	-0.058477	-0.042692
6.470000	0.038589	-0.059108	-0.046518
6.480000	0.034765	-0.060372	-0.050662
6.490000	0.039863	-0.061635	-0.053850
6.500000	0.036040	-0.061635	-0.056082
6.510000	0.037633	-0.062583	-0.058313
6.520000	0.039863	-0.063531	-0.060864
6.530000	0.039545	-0.063847	-0.062139
6.540000	0.037314	-0.064478	-0.063414
6.550000	0.036040	-0.064794	-0.065327
6.560000	0.039863	-0.066374	-0.066284
6.570000	0.036040	-0.067005	-0.066602
6.580000	0.041775	-0.067637	-0.066921
6.590000	0.041457	-0.068901	-0.068197
6.600000	0.034128	-0.069216	-0.067240
6.610000	0.037633	-0.069532	-0.066921
6.620000	0.037633	-0.069848	-0.068197
6.630000	0.035084	-0.070796	-0.069153
6.640000	0.041138	-0.071112	-0.068834
6.650000	0.036677	-0.071744	-0.069472
6.660000	0.038270	-0.071428	-0.070109
6.670000	0.038589	-0.072059	-0.070109
6.680000	0.038270	-0.072691	-0.070428
6.690000	0.036040	-0.072375	-0.071385
6.700000	0.037314	-0.073323	-0.070109
6.710000	0.040182	-0.073007	-0.070747
6.720000	0.036677	-0.074271	-0.071385
6.730000	0.036996	-0.073639	-0.071066
6.740000	0.039226	-0.074902	-0.071066
6.750000	0.035084	-0.074586	-0.071066
6.760000	0.036677	-0.075534	-0.071385
6.770000	0.036677	-0.075534	-0.071703
6.780000	0.039545	-0.075850	-0.072022
6.790000	0.037314	-0.076166	-0.072341
6.800000	0.038907	-0.075534	-0.071066
6.810000	0.040182	-0.076166	-0.072341
6.820000	0.037633	-0.075850	-0.071385
6.830000	0.044006	-0.076482	-0.070747
6.840000	0.038270	-0.076166	-0.072341
6.850000	0.036677	-0.076798	-0.071385
6.860000	0.038270	-0.076798	-0.072022
6.870000	0.039863	-0.077114	-0.072022
6.880000	0.037633	-0.077429	-0.072341
6.890000	0.038270	-0.077745	-0.072341
6.900000	0.035402	-0.077114	-0.072022
6.910000	0.038589	-0.077429	-0.072022
6.920000	0.038907	-0.077429	-0.072022
6.930000	0.037633	-0.077429	-0.071703
6.940000	0.039226	-0.078061	-0.072341
6.950000	0.039863	-0.077745	-0.071703
6.960000	0.035721	-0.078061	-0.072341
6.970000	0.036996	-0.078061	-0.072022
6.980000	0.035721	-0.078061	-0.072341
6.990000	0.033809	-0.078377	-0.072022
7.000000	0.035084	-0.077745	-0.072022
7.010000	0.035084	-0.078693	-0.072660
7.020000	0.036358	-0.078377	-0.071385
7.030000	0.042094	-0.078693	-0.071385
7.040000	0.039863	-0.078377	-0.072022
7.050000	0.035084	-0.078061	-0.071703
7.060000	0.040501	-0.079325	-0.072341
7.070000	0.038270	-0.079009	-0.071703
7.080000	0.037314	-0.078693	-0.072341
7.090000	0.034765	-0.078693	-0.072660
7.100000	0.035721	-0.077745	-0.072022
7.110000	0.040182	-0.079009	-0.072341
7.120000	0.041138	-0.079325	-0.072341
7.130000	0.038907	-0.079009	-0.072341
7.140000	0.040182	-0.078693	-0.072022
7.150000	0.040819	-0.079325	-0.072341
7.160000	0.037952	-0.078061	-0.071066
7.170000	0.041138	-0.078693	-0.071385
7.180000	0.037952	-0.078693	-0.071703
7.190000	0.041775	-0.079325	-0.072660
7.200000	0.040501	-0.078693	-0.071703
7.210000	0.036677	-0.079009	-0.072341
7.220000	0.036677	-0.079325	-0.071703
7.230000	0.036677	-0.079325	-0.071703
7.240000	0.036040	-0.079009	-0.072022
7.250000	0.040182	-0.080272	-0.072022
7.260000	0.040182	-0.079009	-0.072341
7.270000	0.039226	-0.079325	-0.071066
7.280000	0.042413	-0.079009	-0.072022
7.290000	0.035721	-0.079325	-0.071703
7.300000	0.042413	-0.078693	-0.071066
7.310000	0.040819	-0.079325	-0.072022
7.320000	0.041138	-0.079325	-0.072022
7.330000	0.036677	-0.079641	-0.071703
7.340000	0.040501	-0.078693	-0.071703
7.350000	0.039545	-0.080272	-0.072022
7.360000	0.036996	-0.079325	-0.072022
7.370000	0.034446	-0.079009	-0.071703
7.380000	0.037633	-0.079325	-0.071066
7.390000	0.041138	-0.079009	-0.072022
7.400000	0.040819	-0.079325	-0.071385
7.410000	0.036358	-0.078693	-0.072022
7.420000	0.038270	-0.079641	-0.072022
7.430000	0.039545	-0.080272	-0.071703
7.440000	0.036996	-0.079325	-0.071385
7.450000	0.038270	-0.079641	-0.071066
7.460000	0.036040	-0.079009	-0.071385
7.470000	0.037314	-0.079641	-0.071703
7.480000	0.037952	-0.079641	-0.072022
7.490000	0.040819	-0.079009	-0.072022
7.500000	0.040182	-0.078693	-0.071385
7.510000	0.037633	-0.079641	-0.072022
7.520000	0.038270	-0.078693	-0.071703
7.530000	0.037633	-0.079641	-0.071703
7.540000	0.038270	-0.079325	-0.071385
7.550000	0.038907	-0.079956	-0.072341
7.560000	0.039863	-0.079956	-0.072341
7.570000	0.037952	-0.080272	-0.071385
7.580000	0.040501	-0.079641	-0.071703
7.590000	0.040182	-0.079325	-0.072341
7.600000	0.035721	-0.079325	-0.071703
7.610000	0.042731	-0.079325	-0.071385
7.620000	0.038907	-0.078693	-0.071703
7.630000	0.039545	-0.079325	-0.071703
7.640000	0.036996	-0.079641	-0.072022
7.650000	0.036040	-0.079325	-0.071066
7.660000	0.039545	-0.080272	-0.072022
7.670000	0.038907	-0.079325	-0.072341
7.680000	0.034128	-0.079641	-0.072341
7.690000	0.042731	-0.079641	-0.072022
7.700000	0.038270	-0.079009	-0.071385
7.710000	0.038270	-0.079325	-0.072022
7.720000	0.036358	-0.079009	-0.071703
7.730000	0.037633	-0.079956	-0.072341
7.740000	0.040501	-0.079641	-0.072022
7.750000	0.037314	-0.079009	-0.071066
7.760000	0.035402	-0.079641	-0.072341
7.770000	0.040819	-0.079009	-0.071385
7.780000	0.041138	-0.079325	-0.071385
7.790000	0.041138	-0.079325	-0.071703
7.800000	0.043050	-0.079641	-0.071385
7.810000	0.038907	-0.080272	-0.072979
7.820000	0.037633	-0.079325	-0.070747
7.830000	0.040819	-0.079325	-0.072022
7.840000	0.037314	-0.079325	-0.071066
7.850000	0.041138	-0.079641	-0.071385
7.860000	0.037952	-0.079956	-0.071703
7.870000	0.042094	-0.079641	-0.071385
7.880000	0.037952	-0.079641	-0.071385
7.890000	0.035084	-0.079641	-0.071703
7.900000	0.038907	-0.079325	-0.072341
7.910000	0.041138	-0.079641	-0.072022
7.920000	0.038270	-0.079325	-0.071066
7.930000	0.039226	-0.079956	-0.072022
7.940000	0.037633	-0.079956	-0.072341
7.950000	0.039226	-0.079325	-0.072022
7.960000	0.038270	-0.079009	-0.071703
7.970000	0.036677	-0.080272	-0.072022
7.980000	0.037633	-0.079956	-0.071703
7.990000	0.038907	-0.079641	-0.072341
8.000000	0.039545	-0.079641	-0.072022
8.010000	0.037952	-0.079641	-0.072341
8.020000	0.038907	-0.080272	-0.072022
8.030000	0.040182	-0.079641	-0.072022
8.040000	0.037952	-0.079325	-0.072022
8.050000	0.036996	-0.079325	-0.072022
8.060000	0.037633	-0.079325	-0.072022
8.070000	0.039863	-0.079956	-0.072022
8.080000	0.039545	-0.079641	-0.071703
8.090000	0.036040	-0.079325	-0.072022
8.100000	0.036996	-0.079325	-0.071066
8.110000	0.036040	-0.079641	-0.072341
8.120000	0.038589	-0.079641	-0.071385
8.130000	0.036358	-0.079325	-0.071385
8.140000	0.040182	-0.079325	-0.072022
8.150000	0.041457	-0.079009	-0.070747
8.160000	0.033809	-0.079956	-0.072341
8.170000	0.039863	-0.079641	-0.072022
8.180000	0.038907	-0.080272	-0.072022
8.190000	0.038907	-0.079325	-0.071703
8.200000	0.041457	-0.080272	-0.072022
8.210000	0.040182	-0.079956	-0.072341
8.220000	0.041457	-0.079009	-0.071703
8.230000	0.038270	-0.079956	-0.072660
8.240000	0.038270	-0.079641	-0.072341
8.250000	0.036996	-0.079325	-0.071066
8.260000	0.039226	-0.079956	-0.072022
8.270000	0.038907	-0.079641	-0.071703
8.280000	0.040182	-0.079641	-0.072341
8.290000	0.037633	-0.079641	-0.072022
8.300000	0.038270	-0.079641	-0.071385
8.310000	0.040819	-0.080272	-0.072660
8.320000	0.039226	-0.079009	-0.071703
8.330000	0.036358	-0.079325	-0.071703
8.340000	0.038270	-0.079641	-0.072022
8.350000	0.041457	-0.079641	-0.072022
8.360000	0.036358	-0.079009	-0.071385
8.370000	0.036358	-0.079641	-0.072341
8.380000	0.045918	-0.079325	-0.071703
8.390000	0.038589	-0.079325	-0.071703
8.400000	0.037314	-0.079009	-0.071066
8.410000	0.039226	-0.079641	-0.072022
8.420000	0.038270	-0.079009	-0.071385
8.430000	0.039545	-0.079325	-0.071385
8.440000	0.038270	-0.079325	-0.071066
8.450000	0.036996	-0.079325	-0.071385
8.460000	0.040501	-0.079325	-0.071385
8.470000	0.038270	-0.078693	-0.071385
8.480000	0.036677	-0.080272	-0.071385
8.490000	0.041457	-0.079641	-0.071385
8.500000	0.038589	-0.078693	-0.071066
8.510000	0.037633	-0.079956	-0.072341
8.520000	0.039863	-0.079009	-0.071385
8.530000	0.037633	-0.079641	-0.071066
8.540000	0.036358	-0.079641	-0.072341
8.550000	0.036677	-0.079325	-0.071066
8.560000	0.037633	-0.079641	-0.071703
8.570000	0.040819	-0.079641	-0.071066
8.580000	0.038270	-0.079325	-0.071703
8.590000	0.040182	-0.079325	-0.071385
8.600000	0.040182	-0.078693	-0.070747
8.610000	0.036040	-0.079641	-0.071066
8.620000	0.041775	-0.079009	-0.071385
8.630000	0.036358	-0.079325	-0.071703
8.640000	0.040501	-0.079325	-0.071703
8.650000	0.038270	-0.079325	-0.071066
8.660000	0.040819	-0.079641	-0.071385
8.670000	0.036996	-0.079009	-0.071385
8.680000	0.037633	-0.079009	-0.071385
8.690000	0.037633	-0.079009	-0.072341
8.700000	0.040182	-0.079325	-0.071385
8.710000	0.038589	-0.078693	-0.071385
8.720000	0.042094	-0.079009	-0.070747
8.730000	0.043687	-0.079956	-0.071066
8.740000	0.036677	-0.079009	-0.071066
8.750000	0.037952	-0.079325	-0.071066
8.760000	0.035721	-0.079641	-0.072022
8.770000	0.039545	-0.079641	-0.071385
8.780000	0.039226	-0.078693	-0.071385
8.790000	0.041138	-0.079956	-0.072022
8.800000	0.037633	-0.078693	-0.072022
8.810000	0.042413	-0.079641	-0.071703
8.820000	0.037633	-0.078693	-0.071066
8.830000	0.037952	-0.079641	-0.071703
8.840000	0.036996	-0.079641	-0.072022
8.850000	0.036996	-0.079325	-0.071385
8.860000	0.036677	-0.079009	-0.072022
8.870000	0.034765	-0.078693	-0.071703
8.880000	0.036677	-0.078377	-0.071385
8.890000	0.035402	-0.078377	-0.072022
8.900000	0.034765	-0.078693	-0.071066
8.910000	0.036358	-0.080272	-0.072341
8.920000	0.034446	-0.079009	-0.072341
8.930000	0.039545	-0.079325	-0.069472
8.940000	0.033809	-0.079641	-0.064371
8.950000	0.032853	-0.078377	-0.060545
8.960000	0.035721	-0.079325	-0.056719
8.970000	0.034128	-0.078377	-0.054488
8.980000	0.037952	-0.077114	-0.050981
8.990000	0.032535	-0.076166	-0.048112
9.000000	0.029667	-0.074586	-0.045880
9.010000	0.030304	-0.074271	-0.043967
9.020000	0.031260	-0.072691	-0.041098
9.030000	0.032853	-0.071744	-0.040141
9.040000	0.029667	-0.070796	-0.040141
9.050000	0.029030	-0.068585	-0.038866
9.060000	0.027118	-0.067005	-0.037910
9.070000	0.030623	-0.065742	-0.037272
9.080000	0.031897	-0.065426	-0.037272
9.090000	0.028074	-0.062899	-0.035997
9.100000	0.027755	-0.061319	-0.034722
9.110000	0.027755	-0.060056	-0.034084
9.120000	0.027755	-0.059424	-0.033765
9.130000	0.026162	-0.057213	-0.031534
9.140000	0.025524	-0.055318	-0.030577
9.150000	0.024887	-0.054370	-0.029940
9.160000	0.022975	-0.052159	-0.029621
9.170000	0.027118	-0.051211	-0.029302
9.180000	0.025524	-0.049632	-0.028664
9.190000	0.021701	-0.048052	-0.028664
9.200000	0.023931	-0.046157	-0.026433
9.210000	0.024250	-0.044262	-0.026114
9.220000	0.022975	-0.042998	-0.024520
9.230000	0.021701	-0.041103	-0.023563
9.240000	0.022975	-0.039840	-0.022926
9.250000	0.023613	-0.038576	-0.023563
9.260000	0.021382	-0.036681	-0.022607
9.270000	0.019789	-0.035101	-0.021332
9.280000	0.025206	-0.033206	-0.021969
9.290000	0.022975	-0.031627	-0.021969
9.300000	0.021382	-0.030679	-0.020375
9.310000	0.021701	-0.030047	-0.019738
9.320000	0.018833	-0.027520	-0.018781
9.330000	0.021701	-0.027204	-0.019738
9.340000	0.020426	-0.025309	-0.019738
9.350000	0.018196	-0.024045	-0.019738
9.360000	0.018196	-0.024677	-0.019738
9.370000	0.019152	-0.022782	-0.017825
9.380000	0.019789	-0.022150	-0.018144
9.390000	0.019789	-0.022150	-0.017506
9.400000	0.017558	-0.020255	-0.017187
9.410000	0.018196	-0.020255	-0.016868
9.420000	0.019789	-0.019623	-0.017506
9.430000	0.021063	-0.019623	-0.018144
9.440000	0.018196	-0.018991	-0.016868
9.450000	0.017558	-0.018044	-0.015912
9.460000	0.018833	-0.018676	-0.016550
9.470000	0.017558	-0.017096	-0.015912
9.480000	0.018196	-0.017096	-0.014956
9.490000	0.018514	-0.016780	-0.014956
9.500000	0.017240	-0.016780	-0.014637
9.510000	0.017240	-0.016148	-0.015593
9.520000	0.018514	-0.016464	-0.014318
9.530000	0.015647	-0.015201	-0.014637
9.540000	0.017877	-0.015833	-0.014637
9.550000	0.016602	-0.014569	-0.013043
9.560000	0.017240	-0.015833	-0.013999
9.570000	0.014372	-0.014569	-0.013680
9.580000	0.016602	-0.014885	-0.014637
9.590000	0.017558	-0.013937	-0.012405
9.600000	0.016921	-0.013306	-0.012086
9.610000	0.016284	-0.012990	-0.012724
9.620000	0.016602	-0.012674	-0.011449
9.630000	0.014372	-0.013306	-0.011767
9.640000	0.013735	-0.012674	-0.011449
9.650000	0.015009	-0.012042	-0.011130
9.660000	0.013097	-0.011094	-0.011130
9.670000	0.015647	-0.010778	-0.010492
9.680000	0.012779	-0.011726	-0.010492
9.690000	0.013097	-0.010778	-0.009536
9.700000	0.014372	-0.010463	-0.010173
9.710000	0.013416	-0.010463	-0.010811
9.720000	0.012779	-0.010778	-0.009855
9.730000	0.012141	-0.010147	-0.008898
9.740000	0.012141	-0.009199	-0.009855
9.750000	0.010867	-0.010147	-0.008579
9.760000	0.013416	-0.009515	-0.008898
9.770000	0.011504	-0.008567	-0.007942
9.780000	0.010230	-0.008567	-0.007623
9.790000	0.010230	-0.008251	-0.007942
9.800000	0.009911	-0.007620	-0.007623
9.810000	0.010548	-0.007620	-0.007304
9.820000	0.010230	-0.007936	-0.007623
9.830000	0.010230	-0.006988	-0.006667
9.840000	0.009274	-0.006988	-0.006667
9.850000	0.009274	-0.007304	-0.006667
9.860000	0.008955	-0.006988	-0.006667
9.870000	0.010230	-0.006672	-0.006029
9.880000	0.008318	-0.006356	-0.006348
9.890000	0.008318	-0.006988	-0.006985
9.900000	0.007043	-0.006356	-0.006667
9.910000	0.007999	-0.006356	-0.006348
9.920000	0.008636	-0.005724	-0.005710
9.930000	0.008318	-0.006040	-0.005710
9.940000	0.007680	-0.005724	-0.006029
9.950000	0.006087	-0.004777	-0.005073
9.960000	0.006725	-0.004777	-0.005391
9.970000	0.005769	-0.005093	-0.005073
9.980000	0.005131	-0.005093	-0.005391
9.990000	0.007999	-0.005409	-0.005073
10.000000	0.007043	-0.004145	-0.004116
10.010000	0.005450	-0.004777	-0.004754
10.020000	0.007362	-0.003829	-0.004116
10.030000	0.005450	-0.004777	-0.005073
10.040000	0.006406	-0.003829	-0.004116
10.050000	0.003538	-0.003513	-0.004435
10.060000	0.006087	-0.004777	-0.005073
10.070000	0.006725	-0.003829	-0.004435
10.080000	0.005769	-0.003829	-0.004116
10.090000	0.004494	-0.003829	-0.003478
10.100000	0.005131	-0.003197	-0.002841
10.110000	0.005769	-0.003197	-0.004116
10.120000	0.005450	-0.003197	-0.004116
10.130000	0.004494	-0.002881	-0.003478
10.140000	0.004494	-0.002250	-0.002841
10.150000	0.003219	-0.002566	-0.002841
10.160000	0.003538	-0.002881	-0.003478
10.170000	0.005131	-0.002566	-0.002522
10.180000	0.004813	-0.002250	-0.003160
10.190000	0.004175	-0.002881	-0.003478
10.200000	0.003857	-0.001934	-0.003160
10.210000	0.004175	-0.002881	-0.003160
10.220000	0.004813	-0.002566	-0.001884
10.230000	0.004813	-0.002566	-0.003160
10.240000	0.003538	-0.002250	-0.002841
10.250000	0.004813	-0.001618	-0.002203
10.260000	0.004494	-0.002566	-0.002522
10.270000	0.003219	-0.001618	-0.001884
10.280000	0.002901	-0.001934	-0.002522
10.290000	0.003857	-0.001934	-0.002841
10.300000	0.004175	-0.001618	-0.002522
10.310000	0.003857	-0.001618	-0.002203
10.320000	0.004494	-0.001934	-0.002203
10.330000	0.002901	-0.001618	-0.003160
10.340000	0.003857	-0.001934	-0.001884
10.350000	0.004494	-0.001618	-0.001884
10.360000	0.004175	-0.001934	-0.002203
10.370000	0.003219	-0.001934	-0.002522
10.380000	0.002582	-0.001618	-0.002203
10.390000	0.004175	-0.001934	-0.002522
10.400000	0.002901	-0.001934	-0.001566
10.410000	0.003219	-0.001618	-0.001884
10.420000	0.004175	-0.001618	-0.002203
10.430000	0.004175	-0.001302	-0.002203
10.440000	0.004175	-0.001618	-0.002203
10.450000	0.005131	-0.000986	-0.001884
10.460000	0.003538	-0.002250	-0.002522
10.470000	0.003857	-0.000670	-0.000928
10.480000	0.004494	-0.001302	-0.002203
10.490000	0.001945	-0.001302	-0.001566
10.500000	0.002582	-0.001302	-0.001884
10.510000	0.003219	-0.001302	-0.001566
10.520000	0.005450	-0.001302	-0.001566
10.530000	0.003857	-0.001302	-0.002203
10.540000	0.004175	-0.000670	-0.001566
10.550000	0.003857	-0.001302	-0.001884
10.560000	0.004813	-0.001934	-0.002203
10.570000	0.003219	-0.001302	-0.002203
10.580000	0.003538	-0.001618	-0.002203
10.590000	0.003857	-0.001302	-0.002203
10.600000	0.003538	-0.000670	-0.000928
10.610000	0.003219	-0.001618	-0.001566
10.620000	0.003857	-0.000986	-0.001247
10.630000	0.002264	-0.001302	-0.002203
10.640000	0.004175	-0.000986	-0.001566
10.650000	0.004494	-0.000354	-0.001884
10.660000	0.002901	-0.001618	-0.001884
10.670000	0.003857	-0.001302	-0.001566
10.680000	0.002901	-0.000670	-0.001566
10.690000	0.002264	-0.001302	-0.002203
10.700000	0.005131	-0.000670	-0.001884
10.710000	0.003857	-0.001302	-0.001247
10.720000	0.004494	-0.000670	-0.000928
10.730000	0.004494	-0.000670	-0.001247
10.740000	0.004175	-0.001302	-0.000928
10.750000	0.003857	-0.000670	-0.001566
10.760000	0.003857	-0.000986	-0.001884
10.770000	0.003219	-0.000986	-0.001247
10.780000	0.002582	-0.001302	-0.001884
10.790000	0.003538	-0.001302	-0.001884
10.800000	0.003538	-0.000354	-0.002203
10.810000	0.002264	-0.000986	-0.001566
10.820000	0.004813	-0.001302	-0.001884
10.830000	0.002582	-0.000986	-0.001566
10.840000	0.003857	-0.001302	-0.001566
10.850000	0.004813	-0.000670	-0.001247
10.860000	0.002901	-0.000986	-0.000928
10.870000	0.004494	-0.000986	-0.001566
10.880000	0.002264	-0.000670	-0.001566
10.890000	0.003219	-0.001302	-0.001884
10.900000	0.003538	-0.000354	-0.000928
10.910000	0.003857	-0.000670	-0.001247
10.920000	0.004175	-0.001302	-0.001566
10.930000	0.002582	-0.000986	-0.001566
10.940000	0.004175	-0.000354	-0.001247
10.950000	0.004813	-3.854300E-5	-0.000928
10.960000	0.004175	-0.000986	-0.001566
10.970000	0.003857	-0.000354	-0.000609
10.980000	0.003219	-0.000986	-0.002203
10.990000	0.002901	-0.000986	-0.001884
11.000000	0.003219	-0.000986	-0.001566
11.010000	0.003219	-0.000354	-0.001566
11.020000	0.003857	-0.001618	-0.001566
11.030000	0.003538	-0.001302	-0.001566
11.040000	0.003219	-0.000670	-0.001566
11.050000	0.002901	-0.001302	-0.001884
11.060000	0.003857	-0.000670	-0.001884
11.070000	0.003219	-3.854300E-5	-0.000609
11.080000	0.004175	-0.000986	-0.001884
11.090000	0.003538	-0.000986	-0.001884
11.100000	0.002901	-0.000354	-0.001566
11.110000	0.002901	-0.000670	-0.000928
11.120000	0.003538	-0.001302	-0.001566
11.130000	0.002264	-0.000986	-0.001566
11.140000	0.003219	-0.000354	-0.001247
11.150000	0.003538	-0.000670	-0.001566
11.160000	0.003857	-0.001302	-0.002203
11.170000	0.003538	-0.000354	-0.001247
11.180000	0.002582	-0.000354	-0.001884
11.190000	0.004494	-0.000670	-0.001566
11.200000	0.003538	-0.000354	-0.000928
11.210000	0.003857	-0.000354	-0.001247
11.220000	0.003538	-3.854300E-5	-0.000928
11.230000	0.003538	-0.001302	-0.001566
11.240000	0.002901	-0.000986	-0.000609
11.250000	0.002582	-0.000986	-0.001247
11.260000	0.003219	-0.000986	-0.001247
11.270000	0.004494	-0.000354	-0.001566
11.280000	0.004175	-0.000986	-0.001566
11.290000	0.002901	-0.000670	-0.001884
11.300000	0.002582	-0.000986	-0.000928
11.310000	0.002901	-0.000670	-0.001566
11.320000	0.003219	-0.000670	-0.001884
11.330000	0.002582	-0.000986	-0.001884
11.340000	0.003857	-0.000354	-0.000609
11.350000	0.002582	-3.854300E-5	-0.001566
11.360000	0.002901	-0.000670	-0.001884
11.370000	0.003538	-3.854300E-5	-0.000290
11.380000	0.002582	-0.000670	-0.001247
11.390000	0.003538	-0.001302	-0.001566
11.400000	0.003857	-0.000986	-0.000609
11.410000	0.002264	-0.000670	-0.001566
11.420000	0.002901	-0.000670	-0.000928
11.430000	0.003538	-0.000354	-0.001566
11.440000	0.002582	-0.000354	-0.000609
11.450000	0.003538	-0.000670	-0.000928
11.460000	0.003219	-0.000354	-0.000928
11.470000	0.003219	-0.000354	-0.000609
11.480000	0.003219	-0.000670	-0.001884
11.490000	0.003538	-3.854300E-5	-0.001247
11.500000	0.003219	-0.000670	-0.000928
11.510000	0.003538	-0.000354	-0.001566
11.520000	0.002901	-0.000670	-0.001566
11.530000	0.003219	-0.000670	-0.000928
11.540000	0.003219	0.000277	-0.000609
11.550000	0.002264	-0.000354	-0.001247
11.560000	0.003219	-0.000354	-0.000928
11.570000	0.002901	-3.854300E-5	-0.000609
11.580000	0.001945	-0.000354	-0.001247
11.590000	0.002582	-0.000354	-0.000928
11.600000	0.001945	-3.854300E-5	-0.001247
11.610000	0.003219	-0.000986	-0.001566
11.620000	0.002901	-3.854300E-5	-0.001247
11.630000	0.003538	-0.000670	-0.001247
11.640000	0.002582	-0.000354	-0.000928
11.650000	0.003538	-0.000354	-0.000609
11.660000	0.002901	-0.000670	-0.001247
11.670000	0.003857	-3.854300E-5	-0.000928
11.680000	0.002901	-0.000670	-0.001566
11.690000	0.002582	-0.000670	-0.001566
11.700000	0.003538	-0.000354	-0.000928
11.710000	0.002582	-0.000354	-0.000609
11.720000	0.003219	-0.000354	-0.000928
11.730000	0.003538	-0.000354	-0.001884
11.740000	0.002901	-0.000354	-0.000928
11.750000	0.002901	-0.000670	-0.001884
11.760000	0.003538	-0.000354	-0.001247
11.770000	0.003219	-0.000670	-0.000928
11.780000	0.002582	-0.000670	-0.001247
11.790000	0.002582	-0.000670	-0.001566
11.800000	0.002582	-0.000354	-0.000928
11.810000	0.002582	-0.000986	-0.000928
11.820000	0.002901	-0.000670	-0.000928
11.830000	0.002901	-0.000670	-0.001247
11.840000	0.003538	-0.000354	-0.001566
11.850000	0.002264	-0.000354	-0.000609
11.860000	0.003538	-3.854300E-5	-0.000928
11.870000	0.003538	-0.000354	-0.000609
11.880000	0.003219	-0.001302	-0.001566
11.890000	0.001626	-0.000670	-0.001247
11.900000	0.002901	-0.000354	-0.002203
11.910000	0.002264	-0.000670	-0.001566
11.920000	0.003538	-0.000354	-0.001566
11.930000	0.001945	-0.000354	-0.000928
11.940000	0.002901	-0.001302	-0.001247
11.950000	0.002901	-0.000670	-0.001247
11.960000	0.002582	-3.854300E-5	-0.001247
11.970000	0.002582	-0.000670	-0.000928
11.980000	0.002264	-0.000354	-0.001247
11.990000	0.002582	-0.000354	-0.000609
12.000000	0.003219	-3.854300E-5	-0.001247
12.010000	0.002901	-0.000670	-0.000928
12.020000	0.002264	-0.000354	-0.000609
12.030000	0.002901	-0.001302	-0.000609
12.040000	0.002582	-0.000670	-0.001566
12.050000	0.002264	0.000277	-0.000290
12.060000	0.002582	-0.000354	-0.000609
12.070000	0.003219	-3.854300E-5	2.840100E-5
12.080000	0.002582	-0.000670	-0.001247
12.090000	0.003219	-0.000986	-0.000928
12.100000	0.002901	-0.000354	-0.000928
12.110000	0.003219	-3.854300E-5	-0.001247
12.120000	0.002582	-0.000670	-0.000609
12.130000	0.002582	-0.000354	-0.000928
12.140000	0.001945	-0.000670	-0.001884
12.150000	0.002901	-0.000670	-0.000928
12.160000	0.002264	-0.000354	-0.000928
12.170000	0.002582	-0.000670	-0.001884
12.180000	0.001945	-0.000354	-0.000928
12.190000	0.002901	-3.854300E-5	-0.000928
12.200000	0.002901	-0.000354	-0.000928
12.210000	0.003219	-0.000354	-0.000928
12.220000	0.002264	-0.000670	-0.000928
12.230000	0.002582	-3.854300E-5	-0.000928
12.240000	0.002901	-3.854300E-5	-0.000609
12.250000	0.002901	0.000277	-0.000609
12.260000	0.002582	-3.854300E-5	-0.000928
12.270000	0.002901	-0.000354	-0.001247
12.280000	0.002901	-3.854300E-5	-0.000609
12.290000	0.002901	-0.000354	-0.000609
12.300000	0.002901	-0.000670	-0.000609
12.310000	0.002582	-0.000354	-0.000928
12.320000	0.002264	-0.000354	-0.000609
12.330000	0.002901	-3.854300E-5	-0.001247
12.340000	0.002901	-0.000354	-0.000928
12.350000	0.002901	-3.854300E-5	-0.000609
12.360000	0.002582	0.000593	-0.000609
12.370000	0.002264	-0.000986	-0.000609
12.380000	0.002901	-0.000354	-0.000609
12.390000	0.002582	-0.000354	-0.000928
12.400000	0.002582	-0.000354	-0.000928
12.410000	0.002264	-0.000354	-0.001247
12.420000	0.002901	0.000277	-0.000609
12.430000	0.002901	-3.854300E-5	-0.001247
12.440000	0.002582	-0.000354	-0.000928
12.450000	0.002582	-3.854300E-5	-0.000609
12.460000	0.002582	-0.000354	-0.000928
12.470000	0.002901	-0.000354	-0.000609
12.480000	0.002582	-3.854300E-5	-0.000609
12.490000	0.002582	-0.000670	-0.000609
12.500000	0.003219	-3.854300E-5	-0.000609
12.510000	0.002264	-0.000354	-0.000290
12.520000	0.002901	-3.854300E-5	-0.000290
12.530000	0.002582	-0.000354	-0.000928
12.540000	0.003538	-0.000354	-0.000609
12.550000	0.002582	-3.854300E-5	-0.000928
12.560000	0.001945	-3.854300E-5	-0.001247
12.570000	0.002582	-0.000354	-0.000609
12.580000	0.002264	-3.854300E-5	-0.000609
12.590000	0.002582	-0.000354	-0.001247
12.600000	0.002582	-0.000354	-0.000928
12.610000	0.003219	-3.854300E-5	-0.000609
12.620000	0.002901	-3.854300E-5	-0.000609
12.630000	0.002264	-3.854300E-5	-0.001247
12.640000	0.002901	-3.854300E-5	-0.000609
12.650000	0.002264	-0.000354	-0.000928
12.660000	0.002901	-0.000354	-0.000609
12.670000	0.002582	0.000277	2.840100E-5
12.680000	0.002582	-0.000354	-0.001247
12.690000	0.003219	-0.000354	-0.000928
12.700000	0.002901	-3.854300E-5	-0.000290
12.710000	0.002901	-3.854300E-5	-0.000609
12.720000	0.002264	-0.000354	-0.000290
12.730000	0.002582	0.000277	-0.000609
12.740000	0.003538	-3.854300E-5	2.840100E-5
12.750000	0.003219	-3.854300E-5	-0.000290
12.760000	0.002582	-3.854300E-5	-0.000609
12.770000	0.002901	0.000277	-0.000609
12.780000	0.002901	0.000277	-0.000290
12.790000	0.003538	0.000277	-0.000290
12.800000	0.002264	-3.854300E-5	-0.000609
12.810000	0.002582	0.000277	-0.000609
12.820000	0.002901	-3.854300E-5	-0.000290
12.830000	0.002582	-3.854300E-5	-0.000609
12.840000	0.002901	-0.000354	-0.001247
12.850000	0.002582	0.000277	-0.000290
12.860000	0.002264	-0.000354	-0.000609
12.870000	0.002582	-0.000354	-0.000928
12.880000	0.003219	-3.854300E-5	-0.000290
12.890000	0.003219	-3.854300E-5	2.840100E-5
12.900000	0.002901	-0.000354	-0.000928
12.910000	0.003219	-3.854300E-5	-0.000928
12.920000	0.002901	-3.854300E-5	-0.000290
12.930000	0.002582	0.000277	-0.000928
12.940000	0.001945	-3.854300E-5	-0.000609
12.950000	0.003219	0.000277	-0.000290
12.960000	0.002901	-0.000986	-0.001247
12.970000	0.002582	-3.854300E-5	-0.000609
12.980000	0.002901	-3.854300E-5	-0.000928
12.990000	0.002264	-0.000670	-0.000928
13.000000	0.002264	-3.854300E-5	-0.000928
13.010000	0.002901	-0.000354	-0.000928
13.020000	0.002582	0.000277	-0.000928
13.030000	0.002901	-0.000354	-0.000609
13.040000	0.002582	-3.854300E-5	-0.000928
13.050000	0.003219	-3.854300E-5	-0.000290
13.060000	0.002264	-0.000354	-0.000928
13.070000	0.002582	-0.000354	2.840100E-5
13.080000	0.002582	-0.000354	-0.000928
13.090000	0.002264	-0.000354	-0.001247
13.100000	0.002901	0.000277	-0.000290
13.110000	0.003538	-0.000354	-0.000609
13.120000	0.002264	0.000277	-0.000609
13.130000	0.003857	-3.854300E-5	-0.000609
13.140000	0.002901	-3.854300E-5	-0.000609
13.150000	0.002582	-0.000354	-0.000609
13.160000	0.002264	-3.854300E-5	-0.000290
13.170000	0.002901	-3.854300E-5	-0.000609
13.180000	0.002582	-0.000354	-0.000928
13.190000	0.002901	0.000277	-0.000609
13.200000	0.002264	0.000593	2.840100E-5
13.210000	0.002901	0.000593	-0.000609
13.220000	0.002264	-3.854300E-5	2.840100E-5
13.230000	0.002264	0.000277	-0.000609
13.240000	0.002264	-3.854300E-5	-0.000290
13.250000	0.002901	0.000593	-0.000290
13.260000	0.002264	-3.854300E-5	-0.000290
13.270000	0.002264	-0.000354	-0.000928
13.280000	0.002582	-0.000354	-0.000928
13.290000	0.002582	-0.000354	-0.000609
13.300000	0.001945	-0.000354	-0.001566
13.310000	0.002264	-3.854300E-5	-0.001566
13.320000	0.002582	-3.854300E-5	-0.000609
13.330000	0.003219	-3.854300E-5	-0.000609
13.340000	0.003219	-3.854300E-5	-0.000290
13.350000	0.002901	-3.854300E-5	0.000347
13.360000	0.003538	-0.000354	-0.000609
13.370000	0.002901	-0.000354	-0.000928
13.380000	0.002901	-3.854300E-5	-0.000609
13.390000	0.002582	-3.854300E-5	-0.000290
13.400000	0.001945	-0.000354	-0.000928
13.410000	0.002264	-0.000354	-0.000928
13.420000	0.003219	-0.000354	-0.000609
13.430000	0.002264	-3.854300E-5	-0.000609
13.440000	0.002582	-0.000354	-0.000928
13.450000	0.002582	0.000277	-0.000290
13.460000	0.002901	-0.000670	-0.001566
13.470000	0.002264	-0.000354	-0.000928
13.480000	0.002582	-3.854300E-5	-0.000290
13.490000	0.002901	-0.000670	-0.000928
13.500000	0.002582	-0.000670	-0.000290
13.510000	0.002264	0.000593	-0.000609
13.520000	0.003219	0.000277	2.840100E-5
13.530000	0.002264	0.000277	-0.000609
13.540000	0.002901	-3.854300E-5	-0.000290
13.550000	0.002582	-0.000354	-0.000928
13.560000	0.002901	-0.000670	-0.001884
13.570000	0.002582	-3.854300E-5	-0.000609
13.580000	0.002264	-0.000670	-0.001566
13.590000	0.002582	-0.000354	-0.000928
13.600000	0.002264	-0.000354	-0.000928
13.610000	0.001945	-0.000354	-0.000928
13.620000	0.001945	-0.000354	-0.000928
13.630000	0.002264	-3.854300E-5	-0.000928
13.640000	0.002582	-0.000354	-0.000609
13.650000	0.002582	-0.000354	-0.001566
13.660000	0.001945	-3.854300E-5	-0.001247
13.670000	0.003219	0.000593	2.840100E-5
13.680000	0.002264	-0.000354	-0.000928
13.690000	0.002901	-0.000354	-0.000928
13.700000	0.002582	-0.000354	-0.000290
13.710000	0.003219	-0.000354	-0.000609
13.720000	0.002582	-0.000354	-0.000609
13.730000	0.002264	0.000277	-0.000290
13.740000	0.002901	-3.854300E-5	-0.000928
13.750000	0.002582	-3.854300E-5	-0.000928
13.760000	0.001945	-0.000354	-0.001247
13.770000	0.002582	-3.854300E-5	-0.000609
13.780000	0.002582	-3.854300E-5	-0.001247
13.790000	0.002582	-3.854300E-5	-0.000290
13.800000	0.002901	-3.854300E-5	-0.000609
13.810000	0.002264	-0.000670	-0.000928
13.820000	0.002264	-0.000354	-0.000928
13.830000	0.003219	-3.854300E-5	-0.000609
13.840000	0.002582	-0.000670	-0.000928
13.850000	0.003219	-0.000354	-0.000928
13.860000	0.001626	-3.854300E-5	-0.000928
13.870000	0.002582	-0.000354	-0.001247
13.880000	0.001945	-0.000354	-0.000928
13.890000	0.002582	-0.000354	-0.000928
13.900000	0.002264	-3.854300E-5	-0.000928
13.910000	0.002264	-0.000354	-0.000928
13.920000	0.002901	0.000277	2.840100E-5
13.930000	0.002264	-0.000670	-0.001247
13.940000	0.002582	-0.000354	-0.000609
13.950000	0.002264	-3.854300E-5	-0.000290
13.960000	0.002582	0.000277	-0.000928
13.970000	0.002264	-3.854300E-5	-0.000290
13.980000	0.002582	-3.854300E-5	-0.000609
13.990000	0.002582	0.000277	-0.000290
14.000000	0.002582	-0.000670	-0.001566
14.010000	0.002264	-3.854300E-5	-0.000290
14.020000	0.002901	0.000593	-0.000290
14.030000	0.001626	-3.854300E-5	-0.000928
14.040000	0.002264	0.000277	-0.000290
14.050000	0.001945	-3.854300E-5	-0.000928
14.060000	0.002264	-0.000354	-0.001247
14.070000	0.002264	-0.000354	-0.000928
14.080000	0.002582	-0.000354	-0.000609
14.090000	0.002264	-0.000354	-0.001566
14.100000	0.002582	-0.000670	-0.000928
14.110000	0.002582	-0.000354	-0.000928
14.120000	0.002264	-3.854300E-5	-0.000609
14.130000	0.002264	-0.000354	-0.000609
14.140000	0.002582	-3.854300E-5	-0.000290
14.150000	0.002582	0.000277	-0.000290
14.160000	0.002582	-0.000354	-0.000928
14.170000	0.002582	0.000277	-0.000609
14.180000	0.002264	-0.000354	-0.000609
14.190000	0.001945	0.000593	-0.000609
14.200000	0.002582	0.000277	-0.000290
14.210000	0.002582	-3.854300E-5	-0.000609
14.220000	0.002264	-3.854300E-5	-0.000290
14.230000	0.002582	-3.854300E-5	-0.000290
14.240000	0.003219	0.000277	2.840100E-5
14.250000	0.002901	-3.854300E-5	-0.000609
14.260000	0.002264	-3.854300E-5	-0.000290
14.270000	0.002582	-3.854300E-5	-0.000609
14.280000	0.002582	-3.854300E-5	-0.001247
14.290000	0.003219	0.000277	2.840100E-5
14.300000	0.002582	-3.854300E-5	-0.000609
14.310000	0.002264	-0.000670	-0.001247
14.320000	0.002901	-0.000354	-0.000290
14.330000	0.002582	-0.000354	-0.000290
14.340000	0.002582	-0.000354	-0.000609
14.350000	0.002264	0.000277	-0.000928
14.360000	0.002901	-3.854300E-5	-0.000609
14.370000	0.002582	-0.000354	2.840100E-5
14.380000	0.001945	-0.000354	-0.000290
14.390000	0.002264	0.000277	-0.000609
14.400000	0.003219	-3.854300E-5	-0.000609
14.410000	0.002582	-3.854300E-5	-0.000609
14.420000	0.002901	0.000277	2.840100E-5
14.430000	0.002582	-3.854300E-5	-0.000290
14.440000	0.002582	-3.854300E-5	-0.000290
14.450000	0.002264	0.000277	2.840100E-5
14.460000	0.003538	-3.854300E-5	-0.000928
14.470000	0.002582	-3.854300E-5	-0.000609
14.480000	0.003219	-3.854300E-5	-0.000609
14.490000	0.003219	0.000277	2.840100E-5
14.500000	0.003219	-3.854300E-5	-0.000609
14.510000	0.002264	-0.000354	-0.000609
14.520000	0.002582	-3.854300E-5	-0.000609
14.530000	0.003538	0.000593	-0.000290
14.540000	0.002264	0.000593	-0.000609
14.550000	0.002582	0.000593	-0.000290
14.560000	0.002582	-0.000354	-0.000928
14.570000	0.002901	0.000593	-0.000609
14.580000	0.002582	0.000277	2.840100E-5
14.590000	0.002901	0.000593	-0.000290
14.600000	0.002264	-0.000354	-0.000609
14.610000	0.002582	0.000277	-0.000609
14.620000	0.002901	0.000277	-0.000609
14.630000	0.002901	0.000277	-0.000609
14.640000	0.002582	0.000277	-0.000290
14.650000	0.003219	-3.854300E-5	-0.000290
14.660000	0.002582	-3.854300E-5	-0.000609
14.670000	0.002582	0.000909	2.840100E-5
14.680000	0.002582	-3.854300E-5	-0.000609
14.690000	0.002582	-3.854300E-5	-0.000928
14.700000	0.002582	0.000277	-0.000609
14.710000	0.002582	0.000593	-0.000928
14.720000	0.001945	-3.854300E-5	-0.000609
14.730000	0.002901	-3.854300E-5	-0.000290
14.740000	0.002901	-3.854300E-5	-0.000290
14.750000	0.002901	0.000593	-0.000609
14.760000	0.002264	0.000277	-0.000290
14.770000	0.002901	0.000277	2.840100E-5
14.780000	0.002582	0.000277	-0.000928
14.790000	0.002901	-3.854300E-5	-0.000609
14.800000	0.002901	0.000277	-0.000290
14.810000	0.002582	-0.000354	-0.000609
14.820000	0.002264	-0.000354	-0.000290
14.830000	0.003219	-3.854300E-5	2.840100E-5
14.840000	0.002582	-0.000354	-0.000928
14.850000	0.002901	0.000593	-0.000609
14.860000	0.002264	-0.000354	-0.001566
14.870000	0.002264	0.000593	-0.000290
14.880000	0.002901	-3.854300E-5	-0.001247
14.890000	0.002264	0.000277	-0.000290
14.900000	0.002582	-0.000670	-0.000290
14.910000	0.002264	-0.000670	-0.000928
14.920000	0.002901	-3.854300E-5	-0.000609
14.930000	0.002582	-0.000354	-0.000609
14.940000	0.002264	-3.854300E-5	-0.000290
14.950000	0.002264	-3.854300E-5	-0.000290
14.960000	0.002582	0.000909	-0.000290
14.970000	0.002901	0.000593	-0.000290
14.980000	0.002582	-3.854300E-5	-0.000928
14.990000	0.002582	-0.000354	-0.000609
15.000000	0.002582	-3.854300E-5	-0.000609
15.010000	0.002582	-3.854300E-5	-0.000928
15.020000	0.002582	-3.854300E-5	-0.000290
15.030000	0.002264	-3.854300E-5	-0.001247
15.040000	0.002582	-3.854300E-5	-0.000609
15.050000	0.002264	-0.000354	-0.000609
15.060000	0.002901	0.000593	-0.000290
15.070000	0.002264	-0.000354	-0.000609
15.080000	0.001945	-0.000354	-0.001247
15.090000	0.003219	-3.854300E-5	0.000347
15.100000	0.002264	-3.854300E-5	-0.000609
15.110000	0.002582	-0.000354	-0.000928
15.120000	0.002582	-3.854300E-5	-0.000290
15.130000	0.002582	-0.000354	-0.000928
15.140000	0.002901	-0.000354	-0.000609
15.150000	0.003219	0.000277	-0.000290
15.160000	0.001945	-0.000354	-0.001566
15.170000	0.002582	0.000277	-0.000609
15.180000	0.002901	-0.000354	-0.000609
15.190000	0.002582	-0.000354	-0.000928
15.200000	0.002582	-3.854300E-5	-0.000928
15.210000	0.002582	-3.854300E-5	-0.000928
15.220000	0.002901	-3.854300E-5	-0.000290
15.230000	0.002582	-3.854300E-5	-0.001247
15.240000	0.002901	0.000277	-0.000609
15.250000	0.001945	-3.854300E-5	-0.001566
15.260000	0.002264	-3.854300E-5	-0.000609
15.270000	0.002582	0.000593	2.840100E-5
15.280000	0.002901	0.000277	-0.000290
15.290000	0.002582	0.000277	-0.000609
15.300000	0.002582	-3.854300E-5	-0.000609
15.310000	0.002901	0.000593	2.840100E-5
15.320000	0.002264	-0.000354	-0.000928
15.330000	0.002582	0.000593	-0.000290
15.340000	0.002901	-0.000670	-0.000609
15.350000	0.002901	0.000277	-0.000290
15.360000	0.002582	0.000909	-0.000609
15.370000	0.002582	0.000277	-0.000290
15.380000	0.002582	-3.854300E-5	-0.000928
15.390000	0.003219	-3.854300E-5	-0.000290
15.400000	0.002582	0.000593	-0.000290
15.410000	0.002582	-3.854300E-5	-0.001247
15.420000	0.002582	-0.000354	-0.000290
15.430000	0.002901	-3.854300E-5	-0.000290
15.440000	0.002901	-3.854300E-5	-0.000928
15.450000	0.002901	0.000277	-0.000290
15.460000	0.001945	-3.854300E-5	-0.000290
15.470000	0.002582	-0.000354	-0.000609
15.480000	0.002264	-3.854300E-5	-0.000928
15.490000	0.002901	0.000277	-0.000609
15.500000	0.003219	-0.000354	-0.000290
15.510000	0.001945	-0.000354	-0.000928
15.520000	0.002582	-3.854300E-5	-0.000609
15.530000	0.002582	-0.000354	-0.000290
15.540000	0.001626	-0.000670	2.840100E-5
15.550000	0.002264	-0.000354	-0.000609
15.560000	0.002582	-0.000354	-0.000928
15.570000	0.002901	-3.854300E-5	-0.000609
15.580000	0.002264	-3.854300E-5	-0.000290
15.590000	0.002264	-3.854300E-5	-0.000609
15.600000	0.001945	-0.000670	-0.000928
15.610000	0.002582	-3.854300E-5	-0.000928
15.620000	0.002264	-0.000354	-0.001247
15.630000	0.002582	-3.854300E-5	-0.000928
15.640000	0.002582	-3.854300E-5	2.840100E-5
15.650000	0.003219	-3.854300E-5	-0.000290
15.660000	0.002901	-3.854300E-5	-0.000609
15.670000	0.002901	-0.000354	-0.000290
15.680000	0.002264	-0.000354	-0.000290
15.690000	0.002901	0.000593	2.840100E-5
15.700000	0.002582	0.000593	-0.000290
15.710000	0.002901	-0.000354	-0.000609
15.720000	0.001945	-3.854300E-5	-0.000928
15.730000	0.002901	-3.854300E-5	-0.000290
15.740000	0.002901	-3.854300E-5	-0.000609
15.750000	0.002901	0.000593	-0.000290
15.760000	0.002264	-0.000670	-0.000928
15.770000	0.002901	-3.854300E-5	-0.000609
15.780000	0.002264	-0.000354	-0.001247
15.790000	0.002264	-3.854300E-5	-0.000609
15.800000	0.001945	-0.000354	-0.000928
15.810000	0.002264	-0.000354	-0.001566
15.820000	0.001945	-0.000670	-0.000928
15.830000	0.002582	0.000593	-0.000290
15.840000	0.001945	-3.854300E-5	-0.000609
15.850000	0.002901	-0.000354	-0.000928
15.860000	0.002264	-3.854300E-5	-0.000928
15.870000	0.002264	-3.854300E-5	-0.000928
15.880000	0.002582	-0.000354	-0.001247
15.890000	0.002582	0.000593	0.000347
15.900000	0.002582	-0.000354	-0.001566
15.910000	0.001945	-0.000354	-0.000609
15.920000	0.001626	-3.854300E-5	-0.000609
15.930000	0.001945	-0.000670	-0.001566
15.940000	0.002582	-3.854300E-5	-0.000290
15.950000	0.002582	-3.854300E-5	-0.000609
15.960000	0.002264	-3.854300E-5	-0.001247
15.970000	0.002582	-0.000354	-0.000290
15.980000	0.001945	-0.000354	-0.000290
15.990000	0.002582	-0.000354	-0.000609
16.000000	0.002582	0.000277	2.840100E-5
16.010000	0.002901	-3.854300E-5	-0.000290
16.020000	0.002901	-0.000354	-0.000928
16.030000	0.002582	0.000277	-0.000290
16.040000	0.002901	0.000277	-0.000290
16.050000	0.002264	-3.854300E-5	-0.000609
16.060000	0.002582	0.000593	-0.001247
16.070000	0.002901	0.000277	2.840100E-5
16.080000	0.002582	-3.854300E-5	-0.000928
16.090000	0.002582	-3.854300E-5	-0.000609
16.100000	0.003219	0.000909	-0.000290
16.110000	0.002264	0.000277	-0.000609
16.120000	0.002901	-3.854300E-5	-0.000928
16.130000	0.001945	-3.854300E-5	-0.000609
16.140000	0.002582	0.000277	-0.000290
16.150000	0.002582	-3.854300E-5	-0.000928
16.160000	0.002582	-0.000354	-0.000290
16.170000	0.002582	0.000277	0.000347
16.180000	0.002264	0.000277	-0.000290
16.190000	0.003219	-0.000354	0.000347
16.200000	0.002582	0.000593	-0.000928
16.210000	0.003219	-0.000354	-0.000290
16.220000	0.002582	-3.854300E-5	0.000347
16.230000	0.002582	0.000277	-0.000609
16.240000	0.002901	0.000277	-0.000609
16.250000	0.002582	-3.854300E-5	-0.000290
16.260000	0.002264	0.000277	2.840100E-5
16.270000	0.002901	-0.000354	-0.000928
16.280000	0.002264	0.000277	-0.000609
16.290000	0.002582	0.000277	-0.000290
16.300000	0.002582	-0.000354	-0.000609
16.310000	0.002264	-3.854300E-5	2.840100E-5
16.320000	0.003219	-0.000354	-0.000290
16.330000	0.002582	-0.000354	-0.000928
16.340000	0.002582	-0.000670	-0.000609
16.350000	0.002264	-3.854300E-5	-0.000609
16.360000	0.001945	-3.854300E-5	-0.000609
16.370000	0.002582	-3.854300E-5	2.840100E-5
16.380000	0.002582	0.000909	2.840100E-5
16.390000	0.002901	-0.000354	-0.000928
16.400000	0.002901	-3.854300E-5	2.840100E-5
16.410000	0.003219	-3.854300E-5	2.840100E-5
16.420000	0.002582	0.000593	-0.000609
16.430000	0.002582	-0.000354	-0.000609
16.440000	0.003219	0.000593	-0.000609
16.450000	0.003219	0.000909	-0.000290
16.460000	0.003219	0.000593	-0.000609
16.470000	0.002901	0.000277	2.840100E-5
16.480000	0.002582	0.000593	-0.000290
16.490000	0.003219	0.000909	0.000347
16.500000	0.003219	0.000593	2.840100E-5
16.510000	0.002901	0.000593	-0.000609
16.520000	0.002582	0.000277	-0.000609
16.530000	0.002901	0.000593	-0.000290
16.540000	0.002582	-3.854300E-5	-0.000290
16.550000	0.002901	-0.000354	-0.000609
16.560000	0.003219	-0.000354	-0.000609
16.570000	0.002901	-3.854300E-5	2.840100E-5
16.580000	0.002582	-3.854300E-5	-0.000290
16.590000	0.002901	0.000277	-0.000609
16.600000	0.002901	0.000277	2.840100E-5
16.610000	0.002264	-3.854300E-5	2.840100E-5
16.620000	0.002582	0.000277	-0.000290
16.630000	0.002901	-3.854300E-5	-0.000928
16.640000	0.002901	0.000277	2.840100E-5
16.650000	0.002901	-3.854300E-5	2.840100E-5
16.660000	0.002264	-0.000354	-0.000928
16.670000	0.002901	-3.854300E-5	-0.000290
16.680000	0.002582	0.000593	-0.000290
16.690000	0.002582	-0.000354	-0.000928
16.700000	0.002582	-3.854300E-5	-0.000290
16.710000	0.002582	-3.854300E-5	-0.000290
16.720000	0.002582	-3.854300E-5	-0.000609
16.730000	0.002264	-3.854300E-5	-0.001247
16.740000	0.002264	0.000277	-0.000609
16.750000	0.002582	-3.854300E-5	-0.000928
16.760000	0.002582	-3.854300E-5	-0.000290
16.770000	0.002264	0.000593	-0.000609
16.780000	0.002264	-0.000354	-0.000928
16.790000	0.002901	0.000277	-0.000609
16.800000	0.002582	-0.000354	-0.000290
16.810000	0.002264	-3.854300E-5	-0.001247
16.820000	0.002264	0.000277	-0.000290
16.830000	0.002582	-0.000354	-0.000928
16.840000	0.002582	0.000277	-0.000609
16.850000	0.002582	-3.854300E-5	-0.000609
16.860000	0.002264	0.000277	-0.000290
16.870000	0.002582	0.000277	2.840100E-5
16.880000	0.002582	-0.000354	-0.000609
16.890000	0.002901	0.000593	-0.000609
16.900000	0.002582	-0.000354	-0.000290
16.910000	0.002582	-3.854300E-5	-0.000609
16.920000	0.002264	0.000277	-0.000928
16.930000	0.002582	-0.000354	-0.000609
16.940000	0.002582	-3.854300E-5	-0.000609
16.950000	0.002582	0.000593	-0.000609
16.960000	0.002901	-3.854300E-5	-0.000290
16.970000	0.002582	-3.854300E-5	2.840100E-5
16.980000	0.002901	-3.854300E-5	-0.000290
16.990000	0.002582	-3.854300E-5	-0.000609
17.000000	0.002582	-3.854300E-5	-0.000928
17.010000	0.002901	-0.000354	-0.000290
17.020000	0.002901	0.000277	-0.000928
17.030000	0.002582	-3.854300E-5	-0.000928
17.040000	0.002901	0.000277	-0.000290
17.050000	0.003219	-3.854300E-5	-0.000609
17.060000	0.002582	-3.854300E-5	-0.000928
17.070000	0.002582	0.000277	-0.000609
17.080000	0.002582	-3.854300E-5	-0.000290
17.090000	0.002901	-3.854300E-5	-0.000609
17.100000	0.003219	-0.000354	-0.000290
17.110000	0.002582	0.000593	2.840100E-5
17.120000	0.002582	0.000593	2.840100E-5
17.130000	0.002264	-0.000354	-0.000609
17.140000	0.002582	0.000277	2.840100E-5
17.150000	0.001945	-3.854300E-5	-0.000609
17.160000	0.002264	-3.854300E-5	-0.000928
17.170000	0.002264	-0.000354	-0.000290
17.180000	0.002582	-3.854300E-5	-0.001566
17.190000	0.002582	0.000277	-0.000928
17.200000	0.002582	-3.854300E-5	-0.000609
17.210000	0.002582	-0.000354	-0.000928
17.220000	0.002582	-3.854300E-5	-0.000609
17.230000	0.002901	0.000277	-0.000290
17.240000	0.002582	0.000277	-0.000290
17.250000	0.002582	-3.854300E-5	-0.000290
17.260000	0.001945	-3.854300E-5	-0.000290
17.270000	0.002582	-0.000354	-0.001247
17.280000	0.002582	-0.000354	-0.000290
17.290000	0.002264	-3.854300E-5	-0.000609
17.300000	0.001945	0.000593	-0.000609
17.310000	0.002264	-3.854300E-5	-0.000609
17.320000	0.002582	-3.854300E-5	-0.000290
17.330000	0.002582	-0.000354	-0.001247
17.340000	0.002582	-3.854300E-5	-0.000290
17.350000	0.002582	-0.000354	-0.000609
17.360000	0.001945	-3.854300E-5	-0.000290
17.370000	0.002264	-0.000354	-0.000290
17.380000	0.002901	0.000593	-0.000290
17.390000	0.002901	-0.000354	-0.001566
17.400000	0.002264	-0.000354	-0.000928
17.410000	0.002264	0.000593	-0.000609
17.420000	0.002264	-3.854300E-5	-0.000928
17.430000	0.001945	-0.000354	-0.000609
17.440000	0.002901	-0.000354	-0.000609
17.450000	0.001945	-0.000354	-0.000928
17.460000	0.002582	-0.000354	-0.000609
17.470000	0.002582	-0.000670	-0.000928
17.480000	0.002582	-3.854300E-5	-0.000609
17.490000	0.001945	-3.854300E-5	-0.000609
17.500000	0.002582	0.000277	-0.000290
17.510000	0.002264	-3.854300E-5	-0.000928
17.520000	0.002582	-3.854300E-5	-0.000609
17.530000	0.002264	-3.854300E-5	-0.000609
17.540000	0.002901	-3.854300E-5	-0.000928
17.550000	0.002582	-0.000354	-0.000609
17.560000	0.002582	-3.854300E-5	-0.000609
17.570000	0.002582	-3.854300E-5	-0.000928
17.580000	0.001945	-0.000354	-0.000928
17.590000	0.002582	-3.854300E-5	2.840100E-5
17.600000	0.001945	-3.854300E-5	-0.000928
17.610000	0.001945	-0.000354	-0.001247
17.620000	0.002582	-3.854300E-5	-0.000609
17.630000	0.002264	-0.001302	-0.001884
17.640000	0.001945	-0.000354	-0.000609
17.650000	0.002582	-3.854300E-5	-0.000928
17.660000	0.002264	-0.000354	-0.000928
17.670000	0.002582	-0.000354	-0.000609
17.680000	0.002264	-3.854300E-5	-0.000609
17.690000	0.003219	-3.854300E-5	-0.000609
17.700000	0.002582	0.000277	2.840100E-5
17.710000	0.003219	-0.000354	-0.000609
17.720000	0.002901	-0.000354	-0.001247
17.730000	0.002582	-0.000354	-0.000928
17.740000	0.002582	0.000277	-0.000609
17.750000	0.002264	0.000277	-0.000609
17.760000	0.002264	-0.000354	-0.000290
17.770000	0.002582	-0.000354	-0.000928
17.780000	0.001945	0.000277	-0.000928
17.790000	0.002264	-3.854300E-5	-0.000928
17.800000	0.002582	0.000277	-0.000609
17.810000	0.002901	-0.000354	-0.000928
17.820000	0.002901	-0.000670	2.840100E-5
17.830000	0.002582	-3.854300E-5	-0.000609
17.840000	0.002582	-0.000354	-0.001566
17.850000	0.002582	0.000593	-0.000609
17.860000	0.003538	-3.854300E-5	-0.001566
17.870000	0.002901	-0.000670	-0.000609
17.880000	0.002264	-0.000354	-0.000928
17.890000	0.002582	-3.854300E-5	-0.000290
17.900000	0.002582	-3.854300E-5	-0.000928
17.910000	0.001945	-0.000354	2.840100E-5
17.920000	0.002582	-0.000354	2.840100E-5
17.930000	0.002582	-0.000354	-0.001566
17.940000	0.002264	0.000593	-0.000609
17.950000	0.002582	-0.000354	-0.000609
17.960000	0.002264	-0.000354	-0.000928
17.970000	0.002901	-3.854300E-5	-0.000928
17.980000	0.002264	-3.854300E-5	-0.000290
17.990000	0.002264	-3.854300E-5	-0.000609
18.000000	0.003219	0.000277	-0.000609
18.010000	0.003219	0.000593	-0.000290
18.020000	0.002582	-3.854300E-5	-0.000290
18.030000	0.002264	-3.854300E-5	-0.000928
18.040000	0.002901	0.000593	0.000666
18.050000	0.002264	0.000277	2.840100E-5
18.060000	0.002901	-0.000354	-0.000290
18.070000	0.002901	0.000909	0.000347
18.080000	0.002582	-3.854300E-5	-0.000609
18.090000	0.002901	0.000277	-0.000609
18.100000	0.002264	-3.854300E-5	-0.000290
18.110000	0.002582	-3.854300E-5	-0.000609
18.120000	0.002582	-3.854300E-5	-0.000609
18.130000	0.002264	0.000593	-0.000290
18.140000	0.002901	-0.000354	-0.000609
18.150000	0.002582	-3.854300E-5	-0.000928
18.160000	0.003219	0.000277	-0.000290
18.170000	0.003219	0.000593	0.000347
18.180000	0.003219	-3.854300E-5	-0.000290
18.190000	0.002901	0.000277	-0.000290
18.200000	0.003219	0.000593	-0.000290
18.210000	0.002582	0.000593	-0.000290
18.220000	0.003219	-3.854300E-5	0.000347
18.230000	0.002901	0.000593	-0.000609
18.240000	0.002582	0.000277	-0.000290
18.250000	0.002901	-0.000354	0.000347
18.260000	0.002264	-3.854300E-5	-0.000290
18.270000	0.002582	0.000593	-0.000609
18.280000	0.002582	-3.854300E-5	-0.000290
18.290000	0.002582	0.000909	2.840100E-5
18.300000	0.002901	0.000277	-0.000609
18.310000	0.002582	0.000277	-0.000290
18.320000	0.002901	0.000593	-0.000290
18.330000	0.002901	-3.854300E-5	-0.000290
18.340000	0.002582	-3.854300E-5	0.000347
18.350000	0.002582	0.000909	2.840100E-5
18.360000	0.002582	-3.854300E-5	-0.000928
18.370000	0.003219	0.000593	2.840100E-5
18.380000	0.002901	0.000593	-0.000609
18.390000	0.002901	0.000277	-0.000290
18.400000	0.002901	0.000277	0.000347
18.410000	0.002901	0.000277	-0.000609
18.420000	0.002901	-3.854300E-5	2.840100E-5
18.430000	0.003538	-0.000354	-0.000928
18.440000	0.003219	0.000277	-0.000290
18.450000	0.002901	-3.854300E-5	-0.000609
18.460000	0.001945	-3.854300E-5	-0.000290
18.470000	0.002901	0.000277	-0.000928
18.480000	0.002901	-3.854300E-5	-0.000609
18.490000	0.002901	0.000593	0.000347
18.500000	0.002582	-0.000354	-0.000928
18.510000	0.002901	-3.854300E-5	-0.000609
18.520000	0.002901	-3.854300E-5	-0.000609
18.530000	0.002582	-0.000354	-0.000609
18.540000	0.002901	-3.854300E-5	-0.000609
18.550000	0.001945	-3.854300E-5	-0.000609
18.560000	0.003219	-0.000354	-0.000609
18.570000	0.002582	-3.854300E-5	-0.000609
18.580000	0.002582	-0.000354	-0.000609
18.590000	0.002582	-0.000354	-0.000609
18.600000	0.002264	-3.854300E-5	-0.000609
18.610000	0.002582	-3.854300E-5	2.840100E-5
18.620000	0.002901	-0.000354	-0.000928
18.630000	0.002264	-3.854300E-5	-0.000609
18.640000	0.002264	-0.000354	-0.000609
18.650000	0.002582	-3.854300E-5	-0.000928
18.660000	0.001945	-3.854300E-5	-0.000609
18.670000	0.002582	-3.854300E-5	-0.000609
18.680000	0.002582	-3.854300E-5	-0.000609
18.690000	0.002582	-3.854300E-5	-0.000609
18.700000	0.002582	0.000593	-0.000290
18.710000	0.002582	-0.000670	-0.000609
18.720000	0.002901	-3.854300E-5	-0.000609
18.730000	0.001945	-3.854300E-5	-0.000609
18.740000	0.002582	-0.000354	-0.000928
18.750000	0.001945	-0.000354	-0.000609
18.760000	0.002582	-0.000354	-0.000609
18.770000	0.002582	-0.000354	-0.000928
18.780000	0.002582	-3.854300E-5	-0.000290
18.790000	0.002582	-3.854300E-5	-0.000928
18.800000	0.002264	-0.000354	-0.000928
18.810000	0.002264	-0.000354	-0.000609
18.820000	0.002264	0.000593	2.840100E-5
18.830000	0.002901	-3.854300E-5	-0.000609
18.840000	0.002582	0.000593	-0.000290
18.850000	0.002582	-3.854300E-5	2.840100E-5
18.860000	0.002582	-3.854300E-5	-0.001247
18.870000	0.002582	-0.000354	-0.000609
18.880000	0.002264	0.001541	0.000666
18.890000	0.001945	-3.854300E-5	-0.000290
18.900000	0.002582	-0.000354	-0.000290
18.910000	0.002582	0.000277	-0.000290
18.920000	0.001945	-0.000354	-0.000928
18.930000	0.003538	-0.000354	-0.000290
18.940000	0.002582	0.000277	-0.000290
18.950000	0.002901	-0.000670	-0.000928
18.960000	0.002901	-3.854300E-5	-0.000290
18.970000	0.002264	-0.000354	-0.000609
18.980000	0.002264	0.000277	-0.000609
18.990000	0.002264	-0.000354	2.840100E-5
19.000000	0.002582	0.000277	2.840100E-5
19.010000	0.001945	-0.000354	-0.000609
19.020000	0.002901	-3.854300E-5	-0.000609
19.030000	0.002582	-3.854300E-5	-0.000609
19.040000	0.002264	-3.854300E-5	-0.000928
19.050000	0.002582	-3.854300E-5	2.840100E-5
19.060000	0.002582	-3.854300E-5	-0.000928
19.070000	0.002582	-3.854300E-5	-0.000928
19.080000	0.002582	0.000593	-0.000290
19.090000	0.002582	-0.000354	-0.001566
19.100000	0.002582	-3.854300E-5	-0.000290
19.110000	0.002582	-3.854300E-5	-0.000609
19.120000	0.002901	-3.854300E-5	-0.000290
19.130000	0.002264	0.000277	-0.000290
19.140000	0.002901	0.000277	-0.000290
19.150000	0.002582	0.000277	-0.000290
19.160000	0.002582	-0.000354	-0.000928
19.170000	0.002901	-3.854300E-5	-0.000609
19.180000	0.002264	-3.854300E-5	-0.000609
19.190000	0.002582	0.000277	2.840100E-5
19.200000	0.002582	-3.854300E-5	0.000347
19.210000	0.002264	0.000277	-0.001247
19.220000	0.002901	-3.854300E-5	2.840100E-5
19.230000	0.002901	-3.854300E-5	-0.000928
19.240000	0.002901	-0.000670	-0.000928
19.250000	0.002901	0.000277	-0.000290
19.260000	0.003219	0.000593	0.000347
19.270000	0.003219	-3.854300E-5	-0.000290
19.280000	0.002264	-3.854300E-5	-0.000609
19.290000	0.002901	0.000593	0.000347
19.300000	0.002582	-3.854300E-5	-0.000290
19.310000	0.002582	0.000277	-0.000290
19.320000	0.002901	0.000593	2.840100E-5
19.330000	0.002582	-0.000670	-0.000928
19.340000	0.002582	0.000593	2.840100E-5
19.350000	0.002901	-3.854300E-5	-0.000928
19.360000	0.003219	-3.854300E-5	2.840100E-5
19.370000	0.002264	-3.854300E-5	-0.000290
19.380000	0.002264	-3.854300E-5	-0.000290
19.390000	0.002582	-0.000354	-0.000609
19.400000	0.002582	-3.854300E-5	-0.000290
19.410000	0.002264	-0.000354	-0.000928
19.420000	0.002264	-0.000354	-0.000609
19.430000	0.002901	-3.854300E-5	-0.000290
19.440000	0.002582	-0.000354	-0.000928
19.450000	0.002264	-0.000354	-0.000928
19.460000	0.002582	-3.854300E-5	2.840100E-5
19.470000	0.002264	-3.854300E-5	-0.000290
19.480000	0.001945	-3.854300E-5	-0.000609
19.490000	0.002901	0.000593	-0.000609
19.500000	0.002264	-0.000354	-0.001566
19.510000	0.002264	-0.000354	-0.000609
19.520000	0.002901	-3.854300E-5	2.840100E-5
19.530000	0.002582	-3.854300E-5	-0.000928
19.540000	0.001945	-3.854300E-5	-0.000290
19.550000	0.002582	-3.854300E-5	-0.000609
19.560000	0.002582	-3.854300E-5	-0.000928
19.570000	0.002264	-0.000354	-0.000290
19.580000	0.003219	0.000593	-0.000609
19.590000	0.002264	0.000593	-0.000609
19.600000	0.002582	-3.854300E-5	-0.000609
19.610000	0.002582	-0.000354	-0.000290
19.620000	0.003219	-3.854300E-5	-0.000928
19.630000	0.002582	0.000277	-0.000928
19.640000	0.002582	-3.854300E-5	-0.000928
19.650000	0.002582	-3.854300E-5	-0.000928
19.660000	0.003219	-0.000354	-0.001247
19.670000	0.002264	0.000277	-0.000290
19.680000	0.002582	-0.000354	-0.001247
19.690000	0.001945	0.000593	-0.000290
19.700000	0.002264	0.000277	2.840100E-5
19.710000	0.002582	-0.000354	-0.000609
19.720000	0.002901	-3.854300E-5	-0.000290
19.730000	0.003219	-3.854300E-5	-0.000928
19.740000	0.002901	0.000593	-0.000290
19.750000	0.002582	-3.854300E-5	-0.000609
19.760000	0.002901	-3.854300E-5	-0.000609
19.770000	0.001945	-3.854300E-5	-0.000609
19.780000	0.003219	-3.854300E-5	-0.000928
19.790000	0.002901	0.000277	-0.000609
19.800000	0.003219	-3.854300E-5	2.840100E-5
19.810000	0.002582	0.000593	2.840100E-5
19.820000	0.002582	0.000277	-0.000609
19.830000	0.002901	-0.000354	-0.000609
19.840000	0.002582	-0.000354	-0.000290
19.850000	0.002582	0.000277	-0.000928
19.860000	0.002582	-0.000354	-0.000609
19.870000	0.002901	0.000277	2.840100E-5
19.880000	0.002901	0.000277	-0.000609
19.890000	0.002901	0.000277	-0.000609
19.900000	0.003219	0.000277	-0.000290
19.910000	0.002901	0.000593	-0.000290
19.920000	0.002264	-3.854300E-5	-0.000290
19.930000	0.002264	-0.000670	-0.000609
19.940000	0.002582	0.000593	-0.000290
19.950000	0.002264	-3.854300E-5	-0.001247
19.960000	0.001945	0.000277	-0.000609
19.970000	0.002264	-0.000354	-0.000609
19.980000	0.001945	-3.854300E-5	-0.000928
19.990000	0.003219	-3.854300E-5	-0.000609
20.000000	0.002582	-0.000354	-0.000928
20.010000	0.002264	0.000277	-0.000609
20.020000	0.003219	0.000593	2.840100E-5
20.030000	0.002901	-0.000354	-0.001247
20.040000	0.003219	-3.854300E-5	-0.000609
20.050000	0.002582	0.000277	2.840100E-5
20.060000	0.002582	-3.854300E-5	-0.000290
20.070000	0.003219	0.000593	2.840100E-5
20.080000	0.002901	-3.854300E-5	-0.000290
20.090000	0.002582	-0.000354	-0.000290
20.100000	0.002264	0.000277	-0.001566
20.110000	0.002582	0.000593	2.840100E-5
20.120000	0.002582	0.000277	-0.000290
20.130000	0.002901	-0.000354	-0.000609
20.140000	0.002582	0.000593	-0.000609
20.150000	0.002264	-3.854300E-5	-0.000290
20.160000	0.002264	-0.000354	-0.000928
20.170000	0.003219	0.000277	-0.000290
20.180000	0.002901	0.000277	-0.000290
20.190000	0.002264	0.000593	2.840100E-5
20.200000	0.001945	0.000277	2.840100E-5
20.210000	0.002901	-3.854300E-5	-0.000290
20.220000	0.002901	0.000593	-0.000290
20.230000	0.002582	0.000593	-0.000609
20.240000	0.002901	-3.854300E-5	-0.000290
20.250000	0.002582	0.000593	2.840100E-5
20.260000	0.002901	0.000277	-0.000290
20.270000	0.003219	-3.854300E-5	-0.000290
20.280000	0.002264	0.000277	-0.000609
20.290000	0.002582	0.000277	-0.000609
20.300000	0.003857	-0.000354	-0.000290
20.310000	0.003219	-0.000354	-0.000290
20.320000	0.002582	-3.854300E-5	-0.000290
20.330000	0.001945	0.000277	-0.000609
20.340000	0.002901	0.000277	-0.000290
20.350000	0.002901	0.000593	-0.000928
20.360000	0.002582	0.000277	-0.000928
20.370000	0.003219	0.000277	2.840100E-5
20.380000	0.002264	0.000593	-0.000290
20.390000	0.002901	0.000277	-0.000290
20.400000	0.002901	0.000277	-0.000609
20.410000	0.002901	-3.854300E-5	-0.000290
20.420000	0.002582	0.000277	-0.000609
20.430000	0.002901	-0.000670	-0.000609
20.440000	0.002582	0.000277	-0.000609
20.450000	0.002582	-0.000354	-0.000928
20.460000	0.002901	-3.854300E-5	-0.000290
20.470000	0.002582	-0.000354	-0.000928
20.480000	0.002582	-3.854300E-5	-0.000928
20.490000	0.002901	0.000277	0.000347
20.500000	0.002582	-0.000354	-0.000609
20.510000	0.002582	-0.000354	-0.000290
20.520000	0.002582	0.000593	2.840100E-5
20.530000	0.002582	-3.854300E-5	-0.000928
20.540000	0.002264	0.000593	2.840100E-5
20.550000	0.002901	-3.854300E-5	-0.000928
20.560000	0.002901	-3.854300E-5	-0.000928
20.570000	0.002901	-0.000354	-0.000609
20.580000	0.002582	-3.854300E-5	-0.000928
20.590000	0.002264	-3.854300E-5	-0.000609
20.600000	0.002901	-3.854300E-5	-0.000290
20.610000	0.002582	0.000277	-0.000290
20.620000	0.001945	-0.000354	-0.000928
20.630000	0.002264	-0.000354	-0.000609
20.640000	0.002582	-3.854300E-5	2.840100E-5
20.650000	0.002264	0.000593	-0.000928
20.660000	0.002582	-0.000354	-0.000609
20.670000	0.002901	0.000277	0.000347
20.680000	0.001945	-0.000354	-0.000928
20.690000	0.003219	-0.000354	-0.000290
20.700000	0.002264	0.000593	-0.000609
20.710000	0.001945	0.000277	-0.000609
20.720000	0.002582	-3.854300E-5	-0.000609
20.730000	0.002264	0.000277	-0.000609
20.740000	0.001945	-0.000354	-0.000928
20.750000	0.001945	-3.854300E-5	2.840100E-5
20.760000	0.002582	-0.000354	-0.000290
20.770000	0.001945	-3.854300E-5	-0.000928
20.780000	0.001626	-0.000670	-0.000290
20.790000	0.003219	0.000593	2.840100E-5
20.800000	0.002582	-3.854300E-5	-0.000290
20.810000	0.002582	0.000593	-0.000609
20.820000	0.002582	-3.854300E-5	-0.000609
20.830000	0.002582	-3.854300E-5	-0.000928
20.840000	0.002582	0.000909	2.840100E-5
20.850000	0.002582	-0.000354	-0.000609
20.860000	0.002582	-0.000354	-0.000609
20.870000	0.002901	-3.854300E-5	-0.000928
20.880000	0.002582	-3.854300E-5	-0.000609
20.890000	0.001945	0.000277	-0.000609
20.900000	0.002582	-3.854300E-5	-0.000609
20.910000	0.002264	-0.000354	-0.000609
20.920000	0.002582	-3.854300E-5	-0.000290
20.930000	0.002901	-3.854300E-5	-0.000609
20.940000	0.002901	-3.854300E-5	-0.000928
20.950000	0.001945	-0.000354	-0.000609
20.960000	0.002582	-3.854300E-5	-0.000290
20.970000	0.002582	-3.854300E-5	2.840100E-5
20.980000	0.001945	-0.000354	-0.000609
20.990000	0.002901	-3.854300E-5	-0.000290
21.000000	0.002264	-0.000354	-0.000928
21.010000	0.002901	-3.854300E-5	-0.000609
21.020000	0.002901	-3.854300E-5	-0.000609
21.030000	0.002582	0.000277	-0.000928
21.040000	0.001945	-3.854300E-5	-0.000928
21.050000	0.002264	0.000277	-0.000290
21.060000	0.002582	-3.854300E-5	-0.000290
21.070000	0.002582	-3.854300E-5	-0.001566
21.080000	0.002264	-3.854300E-5	-0.000290
21.090000	0.002264	-3.854300E-5	-0.000928
21.100000	0.002264	-3.854300E-5	-0.000609
21.110000	0.001626	-0.000354	-0.000609
21.120000	0.002582	-0.000354	-0.000290
21.130000	0.002582	-3.854300E-5	-0.000609
21.140000	0.002582	-3.854300E-5	-0.000290
21.150000	0.002264	-3.854300E-5	-0.001566
21.160000	0.002264	-3.854300E-5	-0.000609
21.170000	0.002582	-3.854300E-5	-0.000928
21.180000	0.002264	-0.000670	-0.000928
21.190000	0.002582	-0.000354	-0.000609
21.200000	0.002264	-0.000354	-0.000609
21.210000	0.002582	-0.000354	-0.001566
21.220000	0.002582	0.000593	-0.000290
21.230000	0.002264	-0.000670	-0.001566
21.240000	0.002582	-3.854300E-5	-0.000928
21.250000	0.002582	-3.854300E-5	-0.000290
21.260000	0.002582	-3.854300E-5	-0.000290
21.270000	0.002901	0.000277	2.840100E-5
21.280000	0.003219	0.000593	-0.000290
21.290000	0.002901	0.000277	2.840100E-5
21.300000	0.002264	-3.854300E-5	2.840100E-5
21.310000	0.002582	0.000909	-0.000609
21.320000	0.002901	0.000277	2.840100E-5
21.330000	0.002582	-0.000354	-0.000609
21.340000	0.002582	-3.854300E-5	-0.000609
21.350000	0.002582	-3.854300E-5	-0.000609
21.360000	0.003219	-3.854300E-5	-0.000609
21.370000	0.002901	-0.000354	-0.000290
21.380000	0.002264	-3.854300E-5	-0.001247
21.390000	0.003219	-3.854300E-5	-0.000609
21.400000	0.002582	-0.000354	-0.000290
21.410000	0.002901	0.000277	-0.000609
21.420000	0.002582	-3.854300E-5	-0.000928
21.430000	0.001945	-3.854300E-5	2.840100E-5
21.440000	0.002582	0.000277	2.840100E-5
21.450000	0.002264	0.000277	-0.000609
21.460000	0.002264	0.000277	-0.000609
21.470000	0.002264	-0.000354	-0.000609
21.480000	0.002901	-3.854300E-5	-0.000928
21.490000	0.003219	-3.854300E-5	-0.000290
21.500000	0.002582	0.000593	-0.000928
21.510000	0.002264	0.000593	-0.000609
21.520000	0.002582	-0.000354	-0.000609
21.530000	0.002264	-0.000354	-0.000928
21.540000	0.002582	-0.000354	-0.000290
21.550000	0.002264	-0.000354	-0.000609
21.560000	0.001945	-0.000354	-0.000609
21.570000	0.002901	-0.000354	2.840100E-5
21.580000	0.002901	0.000277	-0.000609
21.590000	0.003219	0.000277	-0.000609
21.600000	0.002901	-0.000354	-0.000609
21.610000	0.002264	-0.000354	-0.000609
21.620000	0.002582	0.000277	-0.000290
21.630000	0.001945	0.000277	-0.000609
21.640000	0.002901	0.000593	2.840100E-5
21.650000	0.002582	-3.854300E-5	-0.000609
21.660000	0.002264	0.000593	-0.000609
21.670000	0.002264	0.000277	-0.000290
21.680000	0.002264	0.000277	-0.000928
21.690000	0.002582	0.000277	-0.000290
21.700000	0.002582	-3.854300E-5	-0.000609
21.710000	0.003219	0.000277	-0.000609
21.720000	0.002901	0.000909	2.840100E-5
21.730000	0.002901	0.000593	-0.000609
21.740000	0.002901	-3.854300E-5	-0.000290
21.750000	0.002264	-3.854300E-5	2.840100E-5
21.760000	0.002264	-0.000354	-0.000609
21.770000	0.003538	0.000277	-0.000290
21.780000	0.002582	0.000593	0.000347
21.790000	0.002582	0.000909	-0.000290
21.800000	0.002264	-3.854300E-5	-0.000609
21.810000	0.002582	0.000593	-0.000290
21.820000	0.002264	-3.854300E-5	-0.000928
21.830000	0.002264	-3.854300E-5	-0.000609
21.840000	0.002582	0.000909	0.000347
21.850000	0.002582	0.000593	-0.000609
21.860000	0.002264	-3.854300E-5	2.840100E-5
21.870000	0.002582	0.000277	2.840100E-5
21.880000	0.002582	-3.854300E-5	-0.000609
21.890000	0.002264	-3.854300E-5	-0.000290
21.900000	0.002901	-0.000354	-0.000290
21.910000	0.002582	-3.854300E-5	-0.000609
21.920000	0.003219	-0.000354	-0.000290
21.930000	0.002582	-3.854300E-5	-0.000609
21.940000	0.002582	-3.854300E-5	2.840100E-5
21.950000	0.002582	-3.854300E-5	-0.000609
21.960000	0.002901	-0.000354	-0.000928
21.970000	0.003219	0.000277	-0.000609
21.980000	0.002582	-3.854300E-5	-0.000609
21.990000	0.002901	0.000277	-0.000290
22.000000	0.002582	-3.854300E-5	-0.000290
22.010000	0.003538	0.000277	2.840100E-5
22.020000	0.002901	0.000593	-0.000290
22.030000	0.002582	0.000593	-0.000609
22.040000	0.002582	0.000593	0.000347
22.050000	0.003219	-3.854300E-5	2.840100E-5
22.060000	0.002582	-3.854300E-5	-0.000928
22.070000	0.002901	-3.854300E-5	2.840100E-5
22.080000	0.003219	-0.000354	-0.000609
22.090000	0.002901	0.000277	-0.000609
22.100000	0.002582	0.000593	-0.000609
22.110000	0.002582	0.000277	-0.000290
22.120000	0.002582	-3.854300E-5	-0.000290
22.130000	0.002264	-0.000354	-0.000290
22.140000	0.002582	-0.000354	-0.000290
22.150000	0.002264	-0.000354	-0.000609
22.160000	0.003538	0.000277	-0.000290
22.170000	0.002901	-3.854300E-5	2.840100E-5
22.180000	0.002582	-3.854300E-5	-0.000928
22.190000	0.002901	-0.000354	-0.000290
22.200000	0.002901	-0.000354	-0.000609
22.210000	0.002264	0.000593	0.000666
22.220000	0.002582	-3.854300E-5	2.840100E-5
22.230000	0.002582	-3.854300E-5	-0.000290
22.240000	0.002901	-3.854300E-5	2.840100E-5
22.250000	0.002582	0.000593	0.000347
22.260000	0.002582	-3.854300E-5	-0.000609
22.270000	0.002582	0.000277	-0.000290
22.280000	0.002901	-0.000354	-0.000290
22.290000	0.002901	0.000277	-0.000609
22.300000	0.002901	-3.854300E-5	-0.000609
22.310000	0.002582	-0.000354	2.840100E-5
22.320000	0.002582	-3.854300E-5	-0.000928
22.330000	0.002582	-0.000354	-0.000290
22.340000	0.002901	0.000593	-0.000290
22.350000	0.002901	-3.854300E-5	-0.000928
22.360000	0.002582	-0.000354	-0.001247
22.370000	0.002264	0.000277	-0.000290
22.380000	0.001945	-3.854300E-5	-0.000928
22.390000	0.002582	0.000593	0.000347
22.400000	0.003219	-3.854300E-5	-0.000290
22.410000	0.002582	0.000277	-0.000290
22.420000	0.002901	-3.854300E-5	-0.000290
22.430000	0.002582	-3.854300E-5	-0.000609
22.440000	0.002582	0.000593	-0.000928
22.450000	0.002264	-3.854300E-5	-0.000609
22.460000	0.001945	-3.854300E-5	-0.000609
22.470000	0.002582	-0.000670	-0.000928
22.480000	0.001945	-3.854300E-5	-0.000609
22.490000	0.002901	-3.854300E-5	-0.000290
22.500000	0.002264	-3.854300E-5	-0.000609
22.510000	0.002901	-3.854300E-5	2.840100E-5
22.520000	0.002901	-3.854300E-5	-0.000290
22.530000	0.001945	-3.854300E-5	-0.000928
22.540000	0.002582	0.000277	-0.000290
22.550000	0.002582	-3.854300E-5	-0.000928
22.560000	0.002901	-3.854300E-5	-0.000290
22.570000	0.003219	-3.854300E-5	-0.000928
22.580000	0.002264	-0.000354	-0.000609
22.590000	0.002582	-3.854300E-5	-0.000290
22.600000	0.002264	-3.854300E-5	-0.000290
22.610000	0.002582	-0.000354	-0.000928
22.620000	0.001945	-0.000354	-0.000609
22.630000	0.002582	-0.000354	-0.000928
22.640000	0.002264	-0.000354	-0.000609
22.650000	0.002264	0.000277	-0.000609
22.660000	0.003219	-3.854300E-5	2.840100E-5
22.670000	0.002582	-3.854300E-5	-0.000928
22.680000	0.002582	-3.854300E-5	2.840100E-5
22.690000	0.002582	-3.854300E-5	-0.000290
22.700000	0.002582	-3.854300E-5	-0.000928
22.710000	0.002264	0.000277	-0.000609
22.720000	0.002582	-0.000354	-0.000609
22.730000	0.002264	0.000593	-0.000290
22.740000	0.002582	-0.000354	-0.000290
22.750000	0.002582	-0.000986	-0.001884
22.760000	0.002582	-0.000354	-0.001247
22.770000	0.002582	-0.000354	-0.000928
22.780000	0.002264	-0.000354	-0.001247
22.790000	0.002264	-0.000354	-0.000609
22.800000	0.002264	-0.000670	-0.000928
22.810000	0.002582	-0.000354	-0.000609
22.820000	0.002582	0.000277	-0.000609
22.830000	0.002582	-3.854300E-5	-0.000609
22.840000	0.002582	-3.854300E-5	-0.000609
22.850000	0.002901	-0.000354	-0.000290
22.860000	0.002901	-3.854300E-5	-0.000609
22.870000	0.002264	-3.854300E-5	-0.000928
22.880000	0.002901	-3.854300E-5	-0.000928
22.890000	0.003219	0.000593	-0.000609
22.900000	0.002582	0.000277	-0.000928
22.910000	0.002264	0.000277	2.840100E-5
22.920000	0.002264	-3.854300E-5	-0.000609
22.930000	0.002264	-0.000986	-0.000928
22.940000	0.002582	0.000593	-0.000290
22.950000	0.001945	-0.000670	-0.001247
22.960000	0.002582	-3.854300E-5	-0.000609
22.970000	0.002582	-0.000354	-0.000928
22.980000	0.002901	-0.000354	-0.000290
22.990000	0.002901	0.001225	0.000666
23.000000	0.002582	-0.000354	-0.000928
23.010000	0.002264	-3.854300E-5	-0.001247
23.020000	0.002582	0.000277	2.840100E-5
23.030000	0.002582	-3.854300E-5	-0.000609
23.040000	0.002582	-3.854300E-5	2.840100E-5
23.050000	0.002264	-3.854300E-5	-0.000928
23.060000	0.002582	-0.000354	-0.001247
23.070000	0.002582	0.000593	-0.000609
23.080000	0.002582	-0.000354	-0.000928
23.090000	0.002582	-0.000670	-0.000609
23.100000	0.002901	-3.854300E-5	-0.000290
23.110000	0.002901	-3.854300E-5	-0.000290
23.120000	0.002901	-3.854300E-5	-0.000290
23.130000	0.002901	-0.000354	-0.000290
23.140000	0.002901	-3.854300E-5	-0.000609
23.150000	0.002901	-3.854300E-5	-0.000928
23.160000	0.002582	-3.854300E-5	-0.000609
23.170000	0.002901	0.000277	-0.001247
23.180000	0.002264	-3.854300E-5	-0.000290
23.190000	0.001945	0.000593	2.840100E-5
23.200000	0.002264	0.000277	-0.000928
23.210000	0.002264	0.000277	2.840100E-5
23.220000	0.002582	-3.854300E-5	-0.000609
23.230000	0.002264	-0.000354	-0.000609
23.240000	0.002582	-3.854300E-5	-0.000928
23.250000	0.002264	0.000277	-0.000928
23.260000	0.002582	-3.854300E-5	-0.000928
23.270000	0.002901	-3.854300E-5	-0.000609
23.280000	0.002582	0.000277	-0.000609
23.290000	0.002582	-3.854300E-5	-0.000290
23.300000	0.002901	-3.854300E-5	-0.000609
23.310000	0.002582	-3.854300E-5	-0.000928
23.320000	0.002264	0.000277	-0.000609
23.330000	0.002582	-3.854300E-5	-0.000609
23.340000	0.001945	-0.000354	-0.000609
23.350000	0.002264	-3.854300E-5	-0.000290
23.360000	0.002264	-3.854300E-5	0.000347
23.370000	0.001945	-0.000354	-0.000609
23.380000	0.002582	-3.854300E-5	-0.000928
23.390000	0.002582	-0.000354	-0.000290
23.400000	0.002582	0.000277	-0.000928
23.410000	0.002264	0.000277	-0.000290
23.420000	0.002901	-0.000354	-0.000928
23.430000	0.002582	0.000593	-0.000290
23.440000	0.003219	0.000277	2.840100E-5
23.450000	0.002901	0.000593	-0.000290
23.460000	0.002582	0.000277	-0.000290
23.470000	0.002582	0.000277	2.840100E-5
23.480000	0.001945	-0.000670	-0.001566
23.490000	0.002264	0.000277	-0.000609
23.500000	0.001945	0.000277	-0.000609
23.510000	0.002901	-0.000354	-0.000609
23.520000	0.002264	0.000277	2.840100E-5
23.530000	0.001945	-3.854300E-5	-0.000609
23.540000	0.002901	0.000593	-0.000609
23.550000	0.002901	-0.000354	-0.000609
23.560000	0.002582	-3.854300E-5	-0.000609
23.570000	0.002582	-0.000354	-0.000290
23.580000	0.002582	0.000277	-0.000928
23.590000	0.001945	-3.854300E-5	-0.000928
23.600000	0.002264	-3.854300E-5	-0.000290
23.610000	0.002901	0.000277	2.840100E-5
23.620000	0.002264	0.000277	-0.000928
23.630000	0.002901	-3.854300E-5	0.000347
23.640000	0.002582	0.000593	-0.000290
23.650000	0.002582	-3.854300E-5	-0.000609
23.660000	0.002901	0.000593	-0.000290
23.670000	0.002582	0.000277	-0.000290
23.680000	0.002264	-0.000354	-0.000290
23.690000	0.002582	-0.000354	-0.000290
23.700000	0.002582	-0.000670	-0.000928
23.710000	0.002901	-0.000354	-0.000609
23.720000	0.002901	-3.854300E-5	-0.000928
23.730000	0.002901	-0.000354	-0.001566
23.740000	0.002901	0.001225	2.840100E-5
23.750000	0.002582	-3.854300E-5	-0.000290
23.760000	0.002582	0.000593	2.840100E-5
23.770000	0.003219	-0.000354	-0.000609
23.780000	0.003219	-3.854300E-5	-0.000609
23.790000	0.002582	-3.854300E-5	0.000347
23.800000	0.002582	0.000277	-0.000290
23.810000	0.002901	0.000277	-0.000609
23.820000	0.002264	-0.000354	2.840100E-5
23.830000	0.002582	-0.000354	-0.000609
23.840000	0.001945	-0.000354	-0.000609
23.850000	0.002582	-0.000354	-0.000290
23.860000	0.002264	-0.000354	-0.000290
23.870000	0.002582	-3.854300E-5	-0.000928
23.880000	0.002582	0.000277	-0.000609
23.890000	0.002582	0.000277	2.840100E-5
23.900000	0.002582	-0.000354	-0.000609
23.910000	0.002264	-3.854300E-5	-0.000290
23.920000	0.002582	0.000593	2.840100E-5
23.930000	0.002582	-3.854300E-5	-0.000609
23.940000	0.002901	0.000593	0.000347
23.950000	0.002901	-3.854300E-5	-0.000290
23.960000	0.002901	0.000277	2.840100E-5
23.970000	0.002901	0.000277	-0.000609
23.980000	0.002582	-3.854300E-5	-0.000609
23.990000	0.002582	-0.000354	2.840100E-5

