LabVIEW Measurement	
Writer_Version	2
Reader_Version	2
Separator	Tab
Decimal_Separator	.
Multi_Headings	Yes
X_Columns	One
Time_Pref	Absolute
Operator	rsh2268
Date	2024/10/01
Time	16:30:09.7782901999996021632
***End_of_Header***	
	
Channels	2		
Samples	2400	2400	
Date	2024/10/01	2024/10/01	
Time	16:30:09.7782901999996021632	16:30:09.7782901999996021632	
Y_Unit_Label	Volts	Volts	
X_Dimension	Time	Time	
X0	0.0000000000000000E+0	0.0000000000000000E+0	
Delta_X	0.010000	0.010000	
***End_of_Header***			
X_Value	cDAQ2Mod1/ai0	cDAQ2Mod1/ai1	Comment
0.000000	0.003538	-0.000986
0.010000	0.002582	-0.000354
0.020000	0.001945	-0.000354
0.030000	0.002264	-0.000354
0.040000	0.002264	-0.000354
0.050000	0.001626	-0.000670
0.060000	0.001945	-3.854300E-5
0.070000	0.001945	-0.000670
0.080000	0.001626	-3.854300E-5
0.090000	0.002582	-0.000354
0.100000	0.001945	-3.854300E-5
0.110000	0.002582	-0.000354
0.120000	0.001308	-0.000354
0.130000	0.002264	-0.000354
0.140000	0.001626	-0.000354
0.150000	0.002264	-0.000354
0.160000	0.001945	-0.000670
0.170000	0.001626	0.000593
0.180000	0.001945	-0.000670
0.190000	0.001945	-3.854300E-5
0.200000	0.001945	-0.000670
0.210000	0.001945	-3.854300E-5
0.220000	0.002264	-0.000354
0.230000	0.001945	-3.854300E-5
0.240000	0.001945	-0.000670
0.250000	0.001626	-0.000354
0.260000	0.002582	-0.000354
0.270000	0.001945	-0.000354
0.280000	0.001945	-0.000354
0.290000	0.001626	-3.854300E-5
0.300000	0.001945	-0.000670
0.310000	0.001945	-0.000670
0.320000	0.001626	-0.000354
0.330000	0.001308	-0.000354
0.340000	0.001626	-0.000670
0.350000	0.002264	-0.000670
0.360000	0.001945	-0.000354
0.370000	0.001945	-0.000670
0.380000	0.001626	-0.000354
0.390000	0.001945	-0.000670
0.400000	0.001626	-0.000354
0.410000	0.002264	-0.000670
0.420000	0.001308	0.000277
0.430000	0.001626	-0.000354
0.440000	0.002264	-3.854300E-5
0.450000	0.001308	-0.000670
0.460000	0.001945	-0.000354
0.470000	0.000989	0.000277
0.480000	0.002582	-3.854300E-5
0.490000	0.001945	-0.000354
0.500000	0.001945	-0.000986
0.510000	0.001945	-3.854300E-5
0.520000	0.001626	-0.000354
0.530000	0.001945	-3.854300E-5
0.540000	0.002582	-3.854300E-5
0.550000	0.001626	-3.854300E-5
0.560000	0.001945	0.000593
0.570000	0.001626	-0.000354
0.580000	0.001945	-0.000670
0.590000	0.002264	-3.854300E-5
0.600000	0.001626	-0.001302
0.610000	0.001945	-3.854300E-5
0.620000	0.001626	-0.000986
0.630000	0.001945	-0.000670
0.640000	0.002582	-3.854300E-5
0.650000	0.001308	-0.000354
0.660000	0.002264	-0.000354
0.670000	0.001945	-3.854300E-5
0.680000	0.001945	-3.854300E-5
0.690000	0.001945	-3.854300E-5
0.700000	0.001945	-0.000354
0.710000	0.001945	-3.854300E-5
0.720000	0.001945	-3.854300E-5
0.730000	0.001626	-3.854300E-5
0.740000	0.001626	-0.000670
0.750000	0.001945	-0.000354
0.760000	0.002901	-3.854300E-5
0.770000	0.001626	-3.854300E-5
0.780000	0.002582	-3.854300E-5
0.790000	0.002264	0.000593
0.800000	0.001626	-0.000354
0.810000	0.001945	-3.854300E-5
0.820000	0.001945	-0.000354
0.830000	0.002264	-3.854300E-5
0.840000	0.001945	-0.000354
0.850000	0.001945	-3.854300E-5
0.860000	0.001945	-0.000354
0.870000	0.001945	-3.854300E-5
0.880000	0.002264	-3.854300E-5
0.890000	0.001945	-0.000670
0.900000	0.002264	-0.000670
0.910000	0.001626	-0.000354
0.920000	0.002264	-0.000670
0.930000	0.001945	-3.854300E-5
0.940000	0.001626	-0.000354
0.950000	0.001945	-0.000354
0.960000	0.001945	-0.000354
0.970000	0.001945	-0.000354
0.980000	0.002264	-3.854300E-5
0.990000	0.002264	-3.854300E-5
1.000000	0.001626	-0.000354
1.010000	0.001945	-0.000986
1.020000	0.001626	-0.000354
1.030000	0.002582	-0.000354
1.040000	0.001626	-0.000354
1.050000	0.001308	-3.854300E-5
1.060000	0.001626	-3.854300E-5
1.070000	0.001945	-0.000354
1.080000	0.001945	0.000277
1.090000	0.001945	-3.854300E-5
1.100000	0.001308	-0.000354
1.110000	0.002582	-3.854300E-5
1.120000	0.002264	-3.854300E-5
1.130000	0.001626	-0.000354
1.140000	0.001626	-0.000354
1.150000	0.001945	-0.000354
1.160000	0.002264	-0.000354
1.170000	0.002264	-0.000354
1.180000	0.001308	-0.000354
1.190000	0.001945	-3.854300E-5
1.200000	0.001626	-0.000354
1.210000	0.001626	0.000277
1.220000	0.001626	-0.000354
1.230000	0.001308	-0.000354
1.240000	0.001626	-0.000354
1.250000	0.001626	-0.000354
1.260000	0.001945	-0.000354
1.270000	0.001308	-3.854300E-5
1.280000	0.001945	-3.854300E-5
1.290000	0.001308	-0.000354
1.300000	0.001308	-0.000354
1.310000	0.002264	0.000277
1.320000	0.001945	-0.000354
1.330000	0.002264	-3.854300E-5
1.340000	0.002264	-0.000354
1.350000	0.001626	-0.000354
1.360000	0.001945	-3.854300E-5
1.370000	0.001945	-0.000986
1.380000	0.001945	-3.854300E-5
1.390000	0.000989	-0.000670
1.400000	0.002264	-3.854300E-5
1.410000	0.001626	-0.000354
1.420000	0.001945	0.000277
1.430000	0.001945	-0.000670
1.440000	0.002582	-0.000354
1.450000	0.001626	-0.000354
1.460000	0.001945	-3.854300E-5
1.470000	0.001626	-3.854300E-5
1.480000	0.001945	-0.000670
1.490000	0.002264	-3.854300E-5
1.500000	0.001308	-3.854300E-5
1.510000	0.001945	-3.854300E-5
1.520000	0.001626	-3.854300E-5
1.530000	0.001626	-0.000354
1.540000	0.002582	-0.000354
1.550000	0.001945	-0.000354
1.560000	0.001945	-3.854300E-5
1.570000	0.001945	-0.000354
1.580000	0.001626	-0.000354
1.590000	0.002582	-3.854300E-5
1.600000	0.001945	-3.854300E-5
1.610000	0.002264	-3.854300E-5
1.620000	0.001308	-0.000354
1.630000	0.001945	-0.000354
1.640000	0.001945	-3.854300E-5
1.650000	0.001945	-3.854300E-5
1.660000	0.001626	-3.854300E-5
1.670000	0.002264	-3.854300E-5
1.680000	0.001945	-0.000354
1.690000	0.001945	-3.854300E-5
1.700000	0.002264	-0.000354
1.710000	0.001626	-0.000354
1.720000	0.001308	-3.854300E-5
1.730000	0.001945	-3.854300E-5
1.740000	0.001945	-3.854300E-5
1.750000	0.001945	-3.854300E-5
1.760000	0.001945	-3.854300E-5
1.770000	0.001626	-0.000354
1.780000	0.001945	-0.000354
1.790000	0.001945	-3.854300E-5
1.800000	0.002582	-3.854300E-5
1.810000	0.001945	-3.854300E-5
1.820000	0.001945	-0.000354
1.830000	0.001626	-0.000354
1.840000	0.001945	-3.854300E-5
1.850000	0.001945	-0.000354
1.860000	0.001945	-0.000354
1.870000	0.002264	-0.000670
1.880000	0.002264	-3.854300E-5
1.890000	0.001945	-3.854300E-5
1.900000	0.002264	-0.000354
1.910000	0.001308	-0.000670
1.920000	0.001945	-3.854300E-5
1.930000	0.002264	-3.854300E-5
1.940000	0.001945	-3.854300E-5
1.950000	0.001945	-0.000670
1.960000	0.001308	-0.000670
1.970000	0.002264	-0.000354
1.980000	0.001626	-0.000670
1.990000	0.001945	-0.000354
2.000000	0.001626	-0.000354
2.010000	0.001626	-3.854300E-5
2.020000	0.002264	-0.000354
2.030000	0.001945	-0.000670
2.040000	0.001308	0.000277
2.050000	0.001626	-3.854300E-5
2.060000	0.001945	-0.000354
2.070000	0.002582	-0.000354
2.080000	0.001626	-0.000670
2.090000	0.002264	-3.854300E-5
2.100000	0.001626	-0.000354
2.110000	0.001626	-3.854300E-5
2.120000	0.002582	-3.854300E-5
2.130000	0.001945	-0.000354
2.140000	0.001945	0.000277
2.150000	0.001945	-0.001302
2.160000	0.002264	-3.854300E-5
2.170000	0.001626	-0.000986
2.180000	0.001945	-3.854300E-5
2.190000	0.001626	-0.000354
2.200000	0.001626	-3.854300E-5
2.210000	0.001626	-0.000354
2.220000	0.002264	-0.000354
2.230000	0.001626	-0.000354
2.240000	0.002264	-3.854300E-5
2.250000	0.001626	-0.000354
2.260000	0.002264	-3.854300E-5
2.270000	0.001626	-0.000670
2.280000	0.002264	-3.854300E-5
2.290000	0.002264	-0.000354
2.300000	0.001626	-0.000670
2.310000	0.001945	-0.000354
2.320000	0.001945	-0.000354
2.330000	0.001626	-3.854300E-5
2.340000	0.002264	-0.000354
2.350000	0.001626	-0.000670
2.360000	0.002582	-0.000354
2.370000	0.001626	-0.000354
2.380000	0.002264	0.000593
2.390000	0.002582	0.000277
2.400000	0.002264	-0.000354
2.410000	0.001308	-0.000354
2.420000	0.001626	-0.000354
2.430000	0.002582	-3.854300E-5
2.440000	0.001626	-3.854300E-5
2.450000	0.002264	-0.000354
2.460000	0.002264	-0.000354
2.470000	0.002264	-3.854300E-5
2.480000	0.001308	-0.000354
2.490000	0.001945	0.000277
2.500000	0.001626	-3.854300E-5
2.510000	0.001945	-0.000354
2.520000	0.001945	-0.000354
2.530000	0.002582	-3.854300E-5
2.540000	0.001945	-0.000354
2.550000	0.001945	-3.854300E-5
2.560000	0.002264	-0.000354
2.570000	0.001626	-0.000354
2.580000	0.001945	-3.854300E-5
2.590000	0.002901	-0.000354
2.600000	0.001945	-3.854300E-5
2.610000	0.002264	-0.000354
2.620000	0.001626	-0.000354
2.630000	0.001945	-3.854300E-5
2.640000	0.001626	-0.000670
2.650000	0.001626	-0.000354
2.660000	0.001945	-3.854300E-5
2.670000	0.001945	-3.854300E-5
2.680000	0.001945	0.000277
2.690000	0.002901	-0.000354
2.700000	0.002582	-0.000354
2.710000	0.002264	-0.000354
2.720000	0.001626	-0.000354
2.730000	0.002582	0.000277
2.740000	0.001945	-0.000354
2.750000	0.001945	0.000277
2.760000	0.001626	-3.854300E-5
2.770000	0.002264	-0.000354
2.780000	0.001308	-0.000354
2.790000	0.001945	-3.854300E-5
2.800000	0.001945	-0.000986
2.810000	0.002582	0.000277
2.820000	0.001945	-0.000986
2.830000	0.001308	-0.000354
2.840000	0.001945	-3.854300E-5
2.850000	0.001945	-0.000354
2.860000	0.002582	-0.000354
2.870000	0.001308	-3.854300E-5
2.880000	0.002264	0.000277
2.890000	0.001626	-0.000670
2.900000	0.001945	0.000277
2.910000	0.001945	-0.000354
2.920000	0.001945	-0.000354
2.930000	0.001626	-0.000354
2.940000	0.001945	-3.854300E-5
2.950000	0.001626	-0.000670
2.960000	0.002264	0.000277
2.970000	0.002264	-0.000354
2.980000	0.001945	-3.854300E-5
2.990000	0.002582	-3.854300E-5
3.000000	0.001626	-0.000986
3.010000	0.001626	0.000277
3.020000	0.001626	-0.000354
3.030000	0.001945	-3.854300E-5
3.040000	0.001626	0.000277
3.050000	0.001626	-0.000670
3.060000	0.001945	-3.854300E-5
3.070000	0.001626	-0.000670
3.080000	0.001626	-3.854300E-5
3.090000	0.002264	0.000593
3.100000	0.001308	-0.000354
3.110000	0.001945	-0.000670
3.120000	0.002264	-3.854300E-5
3.130000	0.001945	-0.000354
3.140000	0.002264	-0.000670
3.150000	0.002264	-3.854300E-5
3.160000	0.002264	-0.000670
3.170000	0.002264	-0.000986
3.180000	0.001626	-3.854300E-5
3.190000	0.002264	-3.854300E-5
3.200000	0.001626	-0.000670
3.210000	0.001945	-0.000670
3.220000	0.001945	-0.000670
3.230000	0.001945	-3.854300E-5
3.240000	0.002264	0.000277
3.250000	0.001945	-3.854300E-5
3.260000	0.002264	-3.854300E-5
3.270000	0.002264	-0.000354
3.280000	0.001626	-0.000354
3.290000	0.001945	-3.854300E-5
3.300000	0.001626	0.000277
3.310000	0.001945	-3.854300E-5
3.320000	0.001945	-0.000354
3.330000	0.002264	0.000277
3.340000	0.001945	-0.000354
3.350000	0.001945	-3.854300E-5
3.360000	0.001626	-0.000354
3.370000	0.002582	-0.000354
3.380000	0.001945	-3.854300E-5
3.390000	0.001626	-0.000670
3.400000	0.001945	-3.854300E-5
3.410000	0.001945	-0.000354
3.420000	0.001626	-0.000354
3.430000	0.001308	-0.000670
3.440000	0.002264	-3.854300E-5
3.450000	0.001626	-0.000986
3.460000	0.001626	-0.000354
3.470000	0.001945	-0.000354
3.480000	0.001626	-0.000354
3.490000	0.001945	-3.854300E-5
3.500000	0.002264	-0.000354
3.510000	0.002264	-0.001302
3.520000	0.002582	-0.000354
3.530000	0.001626	-0.000986
3.540000	0.002901	0.000593
3.550000	0.001626	-0.000354
3.560000	0.001945	-0.000354
3.570000	0.002264	-0.000670
3.580000	0.001626	-0.000354
3.590000	0.002582	-0.000354
3.600000	0.001945	-0.000354
3.610000	0.002264	-3.854300E-5
3.620000	0.000989	-0.000354
3.630000	0.001945	-0.000354
3.640000	0.001945	-0.000354
3.650000	0.002264	-3.854300E-5
3.660000	0.002264	-0.000354
3.670000	0.001945	-3.854300E-5
3.680000	0.001945	-3.854300E-5
3.690000	0.001626	-3.854300E-5
3.700000	0.001626	-0.000354
3.710000	0.001626	0.000277
3.720000	0.002582	-3.854300E-5
3.730000	0.001945	-3.854300E-5
3.740000	0.001945	-0.000354
3.750000	0.001626	-0.000354
3.760000	0.001626	-0.000354
3.770000	0.001945	-3.854300E-5
3.780000	0.001945	-0.000354
3.790000	0.001308	-3.854300E-5
3.800000	0.001945	-0.000670
3.810000	0.001626	-0.000354
3.820000	0.001945	-0.000354
3.830000	0.001308	-0.000986
3.840000	0.002582	-0.000354
3.850000	0.001945	-0.000670
3.860000	0.001945	-0.000354
3.870000	0.001626	-0.000670
3.880000	0.001945	-0.000670
3.890000	0.002264	0.000277
3.900000	0.001626	-0.000354
3.910000	0.001945	-0.000354
3.920000	0.001945	-0.001302
3.930000	0.001308	-0.000670
3.940000	0.001945	-0.000354
3.950000	0.001945	-0.001302
3.960000	0.002264	-3.854300E-5
3.970000	0.001626	-0.000354
3.980000	0.001945	0.000277
3.990000	0.001945	-3.854300E-5
4.000000	0.001945	0.000277
4.010000	0.001308	-0.000670
4.020000	0.002264	-3.854300E-5
4.030000	0.001626	-0.000354
4.040000	0.001945	-0.000670
4.050000	0.001626	-0.000670
4.060000	0.001945	-0.000354
4.070000	0.001945	-0.000670
4.080000	0.001308	-0.000354
4.090000	0.001945	0.000277
4.100000	0.000670	-0.000986
4.110000	0.002264	-3.854300E-5
4.120000	0.001945	-0.000670
4.130000	0.002264	-0.000354
4.140000	0.001626	0.000277
4.150000	0.002264	-3.854300E-5
4.160000	0.002264	-3.854300E-5
4.170000	0.001626	-0.000670
4.180000	0.002264	-0.000354
4.190000	0.001626	-3.854300E-5
4.200000	0.002582	-0.000354
4.210000	0.001945	-0.000354
4.220000	0.001308	-0.000354
4.230000	0.001945	-0.000354
4.240000	0.001945	-0.000670
4.250000	0.001945	-3.854300E-5
4.260000	0.001626	-0.000670
4.270000	0.002582	-3.854300E-5
4.280000	0.001626	-0.000354
4.290000	0.001945	0.000277
4.300000	0.001945	-3.854300E-5
4.310000	0.002264	-0.000354
4.320000	0.001945	-3.854300E-5
4.330000	0.001626	-3.854300E-5
4.340000	0.002264	0.000277
4.350000	0.001308	-0.000670
4.360000	0.002582	-3.854300E-5
4.370000	0.001626	-0.000670
4.380000	0.001945	-0.000354
4.390000	0.002264	0.000277
4.400000	0.001626	-0.000670
4.410000	0.002264	0.000277
4.420000	0.001945	-0.000354
4.430000	0.001945	-0.000354
4.440000	0.001945	0.000277
4.450000	0.001626	-0.000354
4.460000	0.001945	-3.854300E-5
4.470000	0.002264	-0.000354
4.480000	0.001945	-0.000354
4.490000	0.001945	-0.000354
4.500000	0.001945	-3.854300E-5
4.510000	0.001945	-0.000354
4.520000	0.001945	-3.854300E-5
4.530000	0.001945	-0.000670
4.540000	0.002582	-3.854300E-5
4.550000	0.001945	-0.000354
4.560000	0.001626	-3.854300E-5
4.570000	0.002582	-3.854300E-5
4.580000	0.002264	-3.854300E-5
4.590000	0.002264	0.000277
4.600000	0.001945	-0.000670
4.610000	0.001945	-0.000354
4.620000	0.001626	-3.854300E-5
4.630000	0.001308	-3.854300E-5
4.640000	0.002582	0.000277
4.650000	0.001945	-0.000670
4.660000	0.001626	-3.854300E-5
4.670000	0.002264	-3.854300E-5
4.680000	0.001945	-0.000354
4.690000	0.001626	-0.000354
4.700000	0.001626	-0.000670
4.710000	0.001945	-3.854300E-5
4.720000	0.001945	-0.001302
4.730000	0.002582	-0.000354
4.740000	0.001626	-0.000354
4.750000	0.002264	-0.000354
4.760000	0.001945	-0.000354
4.770000	0.002582	0.000593
4.780000	0.001626	-3.854300E-5
4.790000	0.002264	-3.854300E-5
4.800000	0.001945	-0.000354
4.810000	0.001945	-0.000670
4.820000	0.001945	-0.000354
4.830000	0.001945	-0.000354
4.840000	0.001945	-3.854300E-5
4.850000	0.001626	-0.000354
4.860000	0.002264	-3.854300E-5
4.870000	0.001945	-0.000354
4.880000	0.001945	0.000277
4.890000	0.002264	-3.854300E-5
4.900000	0.001945	-3.854300E-5
4.910000	0.001626	0.000277
4.920000	0.001308	-3.854300E-5
4.930000	0.001626	-0.000670
4.940000	0.001945	-0.000354
4.950000	0.001308	-0.000354
4.960000	0.002582	-3.854300E-5
4.970000	0.002582	-3.854300E-5
4.980000	0.001945	-0.000354
4.990000	0.001626	-3.854300E-5
5.000000	0.001626	-0.000354
5.010000	0.001626	-0.000354
5.020000	0.002264	-0.000354
5.030000	0.001945	-0.000670
5.040000	0.002264	-3.854300E-5
5.050000	0.001945	-0.000670
5.060000	0.001945	-3.854300E-5
5.070000	0.002582	-3.854300E-5
5.080000	0.001945	-3.854300E-5
5.090000	0.002901	-3.854300E-5
5.100000	0.001308	-0.000354
5.110000	0.001626	-0.000354
5.120000	0.001626	-0.000354
5.130000	0.001945	-0.000670
5.140000	0.001945	-0.000354
5.150000	0.001308	-0.000354
5.160000	0.002264	-0.000354
5.170000	0.001626	-3.854300E-5
5.180000	0.001945	0.000277
5.190000	0.002582	-3.854300E-5
5.200000	0.001945	-3.854300E-5
5.210000	0.001626	-0.000354
5.220000	0.001626	-0.000354
5.230000	0.001626	-3.854300E-5
5.240000	0.001945	-3.854300E-5
5.250000	0.002264	-3.854300E-5
5.260000	0.002582	-3.854300E-5
5.270000	0.001945	-0.000354
5.280000	0.001308	-0.000670
5.290000	0.001945	0.000277
5.300000	0.001626	-3.854300E-5
5.310000	0.002264	-3.854300E-5
5.320000	0.001308	-0.000354
5.330000	0.001945	-3.854300E-5
5.340000	0.002264	-3.854300E-5
5.350000	0.001945	-0.000354
5.360000	0.002264	-3.854300E-5
5.370000	0.001626	0.000277
5.380000	0.002264	-3.854300E-5
5.390000	0.001945	-0.000354
5.400000	0.002264	-3.854300E-5
5.410000	0.001626	-0.000354
5.420000	0.002264	-3.854300E-5
5.430000	0.001945	-0.000354
5.440000	0.002264	-3.854300E-5
5.450000	0.001626	-0.000670
5.460000	0.001945	0.000593
5.470000	0.001945	-0.000354
5.480000	0.002264	0.000277
5.490000	0.001945	-0.000354
5.500000	0.001945	-3.854300E-5
5.510000	0.001626	-0.000986
5.520000	0.001945	-3.854300E-5
5.530000	0.001945	-3.854300E-5
5.540000	0.001945	-0.000354
5.550000	0.001626	-0.000354
5.560000	0.001945	-0.000354
5.570000	0.001945	-0.000354
5.580000	0.001945	-3.854300E-5
5.590000	0.001945	-0.000354
5.600000	0.002264	-3.854300E-5
5.610000	0.001308	-0.000354
5.620000	0.001626	-0.000670
5.630000	0.001945	-3.854300E-5
5.640000	0.001945	-3.854300E-5
5.650000	0.001945	-0.000670
5.660000	0.002264	-0.000354
5.670000	0.001626	-0.000354
5.680000	0.001945	-0.000354
5.690000	0.001626	-0.000354
5.700000	0.001945	-0.000670
5.710000	0.002582	-0.000354
5.720000	0.001945	-0.000354
5.730000	0.002264	-0.000354
5.740000	0.001626	-0.000670
5.750000	0.001945	-0.000354
5.760000	0.001626	-0.000354
5.770000	0.002264	-3.854300E-5
5.780000	0.001626	-0.000354
5.790000	0.001945	-0.000354
5.800000	0.001945	-0.000986
5.810000	0.001945	-3.854300E-5
5.820000	0.002264	-0.000354
5.830000	0.001626	-0.000354
5.840000	0.001945	-0.000354
5.850000	0.001308	-0.000354
5.860000	0.002264	-0.000354
5.870000	0.001945	-0.000986
5.880000	0.001626	-3.854300E-5
5.890000	0.001626	-0.000354
5.900000	0.002264	-3.854300E-5
5.910000	0.001626	-0.000354
5.920000	0.001945	-3.854300E-5
5.930000	0.001626	-0.000670
5.940000	0.002264	-0.000354
5.950000	0.001626	-0.000986
5.960000	0.001945	-0.000354
5.970000	0.002264	-3.854300E-5
5.980000	0.002264	-3.854300E-5
5.990000	0.002264	-0.000354
6.000000	0.001626	-3.854300E-5
6.010000	0.002264	-0.000354
6.020000	0.001626	-0.000670
6.030000	0.001945	0.000593
6.040000	0.000989	-0.000354
6.050000	0.001945	0.000593
6.060000	0.001626	-0.000354
6.070000	0.001626	-0.000670
6.080000	0.001945	-3.854300E-5
6.090000	0.002582	-3.854300E-5
6.100000	0.001945	-0.000354
6.110000	0.002582	-3.854300E-5
6.120000	0.001945	-0.000354
6.130000	0.001626	0.000277
6.140000	0.001945	-3.854300E-5
6.150000	0.002264	-0.000354
6.160000	0.001945	-3.854300E-5
6.170000	0.002264	0.000593
6.180000	0.001626	0.000277
6.190000	0.002264	0.000277
6.200000	0.001945	-3.854300E-5
6.210000	0.002264	-0.000354
6.220000	0.001945	-0.000354
6.230000	0.001626	-0.000354
6.240000	0.002264	-0.000354
6.250000	0.001626	0.000277
6.260000	0.002264	-0.000354
6.270000	0.001945	-0.000354
6.280000	0.001945	-0.000354
6.290000	0.001945	0.000277
6.300000	0.002264	-0.000354
6.310000	0.002582	-3.854300E-5
6.320000	0.002264	-0.000354
6.330000	0.001626	-0.000354
6.340000	0.001626	-0.000354
6.350000	0.002264	-3.854300E-5
6.360000	0.001626	-0.000354
6.370000	0.001945	-3.854300E-5
6.380000	0.001945	-0.000670
6.390000	0.001945	0.000593
6.400000	0.001626	-0.000670
6.410000	0.001945	-3.854300E-5
6.420000	0.002582	-0.000354
6.430000	0.001308	-3.854300E-5
6.440000	0.001945	-3.854300E-5
6.450000	0.001945	-0.000670
6.460000	0.001945	0.000277
6.470000	0.001626	-0.000354
6.480000	0.001626	0.000277
6.490000	0.001945	0.000593
6.500000	0.001308	-0.000354
6.510000	0.002264	-0.000354
6.520000	0.001626	-3.854300E-5
6.530000	0.001945	-3.854300E-5
6.540000	0.001945	-0.000354
6.550000	0.001945	-0.000354
6.560000	0.001626	-0.000354
6.570000	0.001626	-0.000670
6.580000	0.001945	0.000277
6.590000	0.001945	-3.854300E-5
6.600000	0.002264	-0.000354
6.610000	0.001945	-0.000670
6.620000	0.001626	-0.000354
6.630000	0.001945	-0.000354
6.640000	0.001945	-0.000354
6.650000	0.001945	-3.854300E-5
6.660000	0.001626	-0.000354
6.670000	0.001945	-0.000354
6.680000	0.001626	0.000277
6.690000	0.001945	-3.854300E-5
6.700000	0.001626	-0.000986
6.710000	0.002582	0.000277
6.720000	0.001945	-0.000354
6.730000	0.001308	-3.854300E-5
6.740000	0.001626	-0.000670
6.750000	0.001626	-0.000670
6.760000	0.001945	-3.854300E-5
6.770000	0.001945	-3.854300E-5
6.780000	0.001945	-0.000354
6.790000	0.001308	0.000277
6.800000	0.002264	-3.854300E-5
6.810000	0.002264	-3.854300E-5
6.820000	0.001945	-0.000986
6.830000	0.001626	-0.000354
6.840000	0.001945	-0.000354
6.850000	0.001945	0.000277
6.860000	0.001626	-3.854300E-5
6.870000	0.001945	-0.000670
6.880000	0.000989	-0.000354
6.890000	0.001945	0.000277
6.900000	0.001626	-0.000670
6.910000	0.002264	-0.000354
6.920000	0.001308	-0.000354
6.930000	0.001945	-3.854300E-5
6.940000	0.001626	-0.000354
6.950000	0.001945	-3.854300E-5
6.960000	0.001945	-3.854300E-5
6.970000	0.001308	-0.000354
6.980000	0.002582	-3.854300E-5
6.990000	0.001945	-0.000354
7.000000	0.002582	0.000277
7.010000	0.001945	-3.854300E-5
7.020000	0.001626	-0.000354
7.030000	0.001626	-0.000354
7.040000	0.001945	-0.000354
7.050000	0.001945	-3.854300E-5
7.060000	0.001626	-0.000354
7.070000	0.001945	-0.000354
7.080000	0.001308	-3.854300E-5
7.090000	0.002582	-0.000354
7.100000	0.002264	-0.000354
7.110000	0.002264	-0.000354
7.120000	0.002582	-3.854300E-5
7.130000	0.001945	-3.854300E-5
7.140000	0.002582	-3.854300E-5
7.150000	0.001945	-0.000670
7.160000	0.001626	-0.000354
7.170000	0.001945	-3.854300E-5
7.180000	0.001945	-3.854300E-5
7.190000	0.002264	-3.854300E-5
7.200000	0.002264	-0.000354
7.210000	0.001945	-3.854300E-5
7.220000	0.001945	-3.854300E-5
7.230000	0.001945	0.000277
7.240000	0.002264	-3.854300E-5
7.250000	0.002582	-3.854300E-5
7.260000	0.001945	-3.854300E-5
7.270000	0.002264	0.000593
7.280000	0.001626	-0.000670
7.290000	0.002264	-0.000986
7.300000	0.001945	0.000593
7.310000	0.001945	-0.000670
7.320000	0.001945	-0.000354
7.330000	0.001308	-3.854300E-5
7.340000	0.001626	-0.000354
7.350000	0.001626	-3.854300E-5
7.360000	0.002264	-0.000670
7.370000	0.001945	-0.000670
7.380000	0.002264	-0.000354
7.390000	0.002264	0.000909
7.400000	0.001626	-0.000354
7.410000	0.001945	-0.000354
7.420000	0.001945	-0.000354
7.430000	0.002582	-3.854300E-5
7.440000	0.002264	-3.854300E-5
7.450000	0.002264	-3.854300E-5
7.460000	0.002264	-0.000354
7.470000	0.001626	-0.000354
7.480000	0.001626	-3.854300E-5
7.490000	0.001626	-0.000670
7.500000	0.001945	-3.854300E-5
7.510000	0.001945	-0.000354
7.520000	0.002264	-3.854300E-5
7.530000	0.001945	-0.000354
7.540000	0.002264	-3.854300E-5
7.550000	0.001945	-0.000670
7.560000	0.002264	-3.854300E-5
7.570000	0.001308	-3.854300E-5
7.580000	0.002264	-0.000354
7.590000	0.001626	-0.000354
7.600000	0.002264	-0.000354
7.610000	0.001945	-0.000670
7.620000	0.001945	-3.854300E-5
7.630000	0.001626	-0.000354
7.640000	0.001626	0.000277
7.650000	0.001945	-0.000670
7.660000	0.001945	-3.854300E-5
7.670000	0.001626	-0.000354
7.680000	0.001308	-0.000354
7.690000	0.001945	-0.000986
7.700000	0.001945	-3.854300E-5
7.710000	0.001945	-0.000354
7.720000	0.001945	-3.854300E-5
7.730000	0.001945	-0.000670
7.740000	0.003219	0.000277
7.750000	0.001308	-0.000354
7.760000	0.002582	-0.000354
7.770000	0.001308	-0.000354
7.780000	0.001945	-3.854300E-5
7.790000	0.002582	-0.000354
7.800000	0.001945	-0.000670
7.810000	0.002582	0.000593
7.820000	0.001626	-0.000354
7.830000	0.001945	-3.854300E-5
7.840000	0.001945	-0.000354
7.850000	0.001626	-3.854300E-5
7.860000	0.001945	-0.000354
7.870000	0.001945	-3.854300E-5
7.880000	0.002582	-0.000354
7.890000	0.002264	-0.000354
7.900000	0.001945	-0.000670
7.910000	0.002264	-0.000354
7.920000	0.001626	-0.000670
7.930000	0.002264	0.000277
7.940000	0.001626	-0.000354
7.950000	0.002264	-3.854300E-5
7.960000	0.002264	-3.854300E-5
7.970000	0.002264	-0.000354
7.980000	0.001945	-0.000354
7.990000	0.001945	-0.000354
8.000000	0.001626	-3.854300E-5
8.010000	0.002582	0.000277
8.020000	0.001626	-0.000354
8.030000	0.002264	-3.854300E-5
8.040000	0.002264	-3.854300E-5
8.050000	0.002264	-3.854300E-5
8.060000	0.002582	-3.854300E-5
8.070000	0.002582	-3.854300E-5
8.080000	0.001945	-0.000354
8.090000	0.002264	-0.000354
8.100000	0.001945	-0.000354
8.110000	0.001945	-0.000354
8.120000	0.001945	-0.000354
8.130000	0.001308	0.000277
8.140000	0.001626	-3.854300E-5
8.150000	0.002264	-0.000354
8.160000	0.002264	-0.000354
8.170000	0.001945	0.000277
8.180000	0.001945	-0.000354
8.190000	0.002264	-0.000354
8.200000	0.002264	-3.854300E-5
8.210000	0.001945	-0.000354
8.220000	0.001626	-0.000670
8.230000	0.001945	-0.000986
8.240000	0.002264	-3.854300E-5
8.250000	0.002264	-3.854300E-5
8.260000	0.002264	-0.000354
8.270000	0.002264	-3.854300E-5
8.280000	0.001945	-0.000354
8.290000	0.001945	-0.000354
8.300000	0.001945	-0.000354
8.310000	0.002264	-0.000354
8.320000	0.002582	-0.000354
8.330000	0.001945	-0.000354
8.340000	0.002582	-0.000354
8.350000	0.001945	-0.000670
8.360000	0.002901	0.000593
8.370000	0.001945	-0.000354
8.380000	0.002264	-3.854300E-5
8.390000	0.002264	-3.854300E-5
8.400000	0.001626	-0.000670
8.410000	0.001626	-0.000354
8.420000	0.001945	-3.854300E-5
8.430000	0.002264	-0.000354
8.440000	0.001626	-3.854300E-5
8.450000	0.001308	-0.000670
8.460000	0.001945	-0.000354
8.470000	0.002264	-0.000354
8.480000	0.001945	-0.000354
8.490000	0.001626	-3.854300E-5
8.500000	0.001626	-3.854300E-5
8.510000	0.002264	-3.854300E-5
8.520000	0.002264	-0.000354
8.530000	0.001626	-0.000354
8.540000	0.001945	-0.000354
8.550000	0.001945	-0.000354
8.560000	0.001945	-0.000670
8.570000	0.001945	-0.000354
8.580000	0.001626	-0.000354
8.590000	0.001945	-0.000354
8.600000	0.001626	-0.000354
8.610000	0.001308	-0.000986
8.620000	0.001626	-0.000354
8.630000	0.001626	-3.854300E-5
8.640000	0.001945	0.000277
8.650000	0.001626	-0.000354
8.660000	0.001945	-0.000354
8.670000	0.001626	-0.000670
8.680000	0.001945	-3.854300E-5
8.690000	0.001626	-0.000354
8.700000	0.001308	-0.000354
8.710000	0.001626	-0.000354
8.720000	0.002264	-0.000354
8.730000	0.000989	-3.854300E-5
8.740000	0.001945	-0.000354
8.750000	0.001626	-0.000354
8.760000	0.002264	-0.000670
8.770000	0.001945	-0.000354
8.780000	0.002582	-0.000354
8.790000	0.001308	-0.000354
8.800000	0.001945	-3.854300E-5
8.810000	0.001626	-0.000670
8.820000	0.001945	0.000277
8.830000	0.001626	-0.000354
8.840000	0.002264	-3.854300E-5
8.850000	0.001626	-0.000354
8.860000	0.001626	-0.000354
8.870000	0.001626	-0.000354
8.880000	0.001308	-3.854300E-5
8.890000	0.001945	0.000277
8.900000	0.001945	-0.000670
8.910000	0.002582	-0.000354
8.920000	0.002264	-0.000354
8.930000	0.001945	-3.854300E-5
8.940000	0.001945	-0.000354
8.950000	0.001626	-0.000670
8.960000	0.002582	-0.000354
8.970000	0.002264	-0.000354
8.980000	0.001945	-0.000354
8.990000	0.001308	-3.854300E-5
9.000000	0.002264	-0.000354
9.010000	0.001945	0.000277
9.020000	0.002264	-3.854300E-5
9.030000	0.001945	-3.854300E-5
9.040000	0.002582	-0.000354
9.050000	0.001945	-0.000354
9.060000	0.001945	-0.000354
9.070000	0.002264	-0.000354
9.080000	0.002264	-0.000354
9.090000	0.001945	-0.000354
9.100000	0.001945	0.000277
9.110000	0.002264	-0.000354
9.120000	0.002264	0.000593
9.130000	0.001945	-0.000354
9.140000	0.001945	-0.000354
9.150000	0.001945	-3.854300E-5
9.160000	0.001945	-0.000986
9.170000	0.001945	-3.854300E-5
9.180000	0.001945	-0.000986
9.190000	0.001626	-0.000354
9.200000	0.001626	-0.000354
9.210000	0.001308	-0.000354
9.220000	0.001626	-0.000354
9.230000	0.002264	-0.000354
9.240000	0.001626	-0.000670
9.250000	0.001308	-0.000670
9.260000	0.002582	-0.000354
9.270000	0.001945	-3.854300E-5
9.280000	0.001626	-3.854300E-5
9.290000	0.002582	-0.000354
9.300000	0.002264	-0.000354
9.310000	0.001945	-3.854300E-5
9.320000	0.001945	-0.000354
9.330000	0.001945	-0.000670
9.340000	0.001945	-0.000670
9.350000	0.001626	-3.854300E-5
9.360000	0.002264	-3.854300E-5
9.370000	0.002264	-3.854300E-5
9.380000	0.001626	-0.000354
9.390000	0.001626	-3.854300E-5
9.400000	0.002264	-3.854300E-5
9.410000	0.001626	-3.854300E-5
9.420000	0.001626	-0.000354
9.430000	0.001626	-0.000354
9.440000	0.001945	-0.000670
9.450000	0.001945	-0.000354
9.460000	0.001945	-3.854300E-5
9.470000	0.001945	-0.000354
9.480000	0.001945	-0.000354
9.490000	0.001945	-3.854300E-5
9.500000	0.002264	-0.000670
9.510000	0.002264	-0.000670
9.520000	0.001945	-0.000670
9.530000	0.001945	-0.000354
9.540000	0.002264	-0.000354
9.550000	0.001945	-3.854300E-5
9.560000	0.001945	-3.854300E-5
9.570000	0.001945	-0.000354
9.580000	0.001945	-0.000354
9.590000	0.002582	-0.000354
9.600000	0.001945	-0.000670
9.610000	0.001945	-3.854300E-5
9.620000	0.001308	-0.000354
9.630000	0.001945	0.000277
9.640000	0.001308	-0.000670
9.650000	0.001945	-3.854300E-5
9.660000	0.001626	-0.000670
9.670000	0.002264	-3.854300E-5
9.680000	0.001945	-0.000670
9.690000	0.001945	-0.000354
9.700000	0.001945	-0.000354
9.710000	0.002264	-0.000354
9.720000	0.001945	-0.000354
9.730000	0.001626	-0.000354
9.740000	0.002582	-3.854300E-5
9.750000	0.001945	-0.000986
9.760000	0.001626	-3.854300E-5
9.770000	0.002582	-0.000354
9.780000	0.001945	-0.000354
9.790000	0.001945	-3.854300E-5
9.800000	0.001308	-0.000354
9.810000	0.001626	-3.854300E-5
9.820000	0.001945	-0.000354
9.830000	0.001626	-3.854300E-5
9.840000	0.002264	-3.854300E-5
9.850000	0.001945	-0.001302
9.860000	0.002264	-3.854300E-5
9.870000	0.001945	-3.854300E-5
9.880000	0.002901	-3.854300E-5
9.890000	0.001945	-3.854300E-5
9.900000	0.001626	-0.000354
9.910000	0.001308	-0.000670
9.920000	0.002264	-3.854300E-5
9.930000	0.001626	-0.000670
9.940000	0.002264	-0.000354
9.950000	0.001945	-3.854300E-5
9.960000	0.002264	-3.854300E-5
9.970000	0.001626	0.000593
9.980000	0.002264	-0.000354
9.990000	0.002264	0.000277
10.000000	0.002264	-0.000354
10.010000	0.002264	-0.000670
10.020000	0.001626	-3.854300E-5
10.030000	0.002264	-0.000354
10.040000	0.002264	-0.000354
10.050000	0.002582	0.000277
10.060000	0.002264	-3.854300E-5
10.070000	0.002264	0.000593
10.080000	0.001626	-3.854300E-5
10.090000	0.002901	-0.000354
10.100000	0.001626	-3.854300E-5
10.110000	0.001945	-3.854300E-5
10.120000	0.001626	-0.000670
10.130000	0.001945	-3.854300E-5
10.140000	0.001945	-0.000670
10.150000	0.001945	-3.854300E-5
10.160000	0.001308	-0.000670
10.170000	0.002901	-0.000354
10.180000	0.001945	-0.000670
10.190000	0.002264	0.000277
10.200000	0.001308	-3.854300E-5
10.210000	0.002264	-3.854300E-5
10.220000	0.001945	-3.854300E-5
10.230000	0.001945	-3.854300E-5
10.240000	0.002264	0.000277
10.250000	0.002264	-0.000354
10.260000	0.002582	0.000277
10.270000	0.002264	0.000277
10.280000	0.001626	0.000277
10.290000	0.003219	0.000593
10.300000	0.002264	-0.000670
10.310000	0.002582	0.000593
10.320000	0.002582	-0.000354
10.330000	0.002582	-0.000354
10.340000	0.002901	-0.000354
10.350000	0.003538	-0.000354
10.360000	0.002582	-0.000670
10.370000	0.003538	-0.000354
10.380000	0.003857	-0.000354
10.390000	0.004175	-0.000354
10.400000	0.004175	-0.000670
10.410000	0.004494	-0.000670
10.420000	0.004813	-0.001302
10.430000	0.008318	-0.001618
10.440000	0.006406	-0.000986
10.450000	0.007680	-0.000986
10.460000	0.005769	-0.001618
10.470000	0.009274	-0.001618
10.480000	0.009911	-0.002566
10.490000	0.012141	-0.000986
10.500000	0.009592	-0.002250
10.510000	0.013097	-0.000986
10.520000	0.012460	-0.001618
10.530000	0.013416	-0.001618
10.540000	0.015965	-0.002250
10.550000	0.016921	-0.001618
10.560000	0.016284	-0.002250
10.570000	0.018833	-0.002250
10.580000	0.025524	-0.002566
10.590000	0.022019	-0.001934
10.600000	0.022975	-0.002881
10.610000	0.025843	-0.003197
10.620000	0.028392	-0.002881
10.630000	0.031260	-0.004461
10.640000	0.035084	-0.003829
10.650000	0.031579	-0.004777
10.660000	0.033809	-0.004145
10.670000	0.035402	-0.005409
10.680000	0.036358	-0.006356
10.690000	0.037952	-0.007620
10.700000	0.041138	-0.007620
10.710000	0.039863	-0.009515
10.720000	0.042413	-0.010147
10.730000	0.046874	-0.010778
10.740000	0.043368	-0.011410
10.750000	0.048467	-0.012358
10.760000	0.045918	-0.012990
10.770000	0.054840	-0.014253
10.780000	0.053565	-0.014253
10.790000	0.054521	-0.015833
10.800000	0.058026	-0.014885
10.810000	0.054521	-0.016464
10.820000	0.062168	-0.017412
10.830000	0.063443	-0.018676
10.840000	0.065992	-0.018360
10.850000	0.066311	-0.020255
10.860000	0.063124	-0.020255
10.870000	0.067585	-0.020887
10.880000	0.066948	-0.022466
10.890000	0.070772	-0.022782
10.900000	0.076507	-0.024361
10.910000	0.076189	-0.025625
10.920000	0.076826	-0.026573
10.930000	0.075551	-0.027520
10.940000	0.074914	-0.028152
10.950000	0.079057	-0.028784
10.960000	0.079694	-0.029415
10.970000	0.079694	-0.029415
10.980000	0.085111	-0.031311
10.990000	0.084792	-0.032890
11.000000	0.084473	-0.034154
11.010000	0.088297	-0.036049
11.020000	0.090209	-0.037628
11.030000	0.089253	-0.037944
11.040000	0.089890	-0.039524
11.050000	0.092440	-0.040471
11.060000	0.089572	-0.040787
11.070000	0.089253	-0.040471
11.080000	0.094351	-0.040471
11.090000	0.090528	-0.041735
11.100000	0.098175	-0.042051
11.110000	0.101362	-0.043630
11.120000	0.102636	-0.045525
11.130000	0.097219	-0.046473
11.140000	0.100406	-0.048052
11.150000	0.102955	-0.048684
11.160000	0.102636	-0.050895
11.170000	0.104867	-0.051211
11.180000	0.102636	-0.053422
11.190000	0.104867	-0.053738
11.200000	0.101362	-0.055634
11.210000	0.104548	-0.056897
11.220000	0.103911	-0.058161
11.230000	0.106141	-0.058792
11.240000	0.104548	-0.059424
11.250000	0.107416	-0.061319
11.260000	0.109328	-0.061635
11.270000	0.107734	-0.062899
11.280000	0.109328	-0.063847
11.290000	0.105823	-0.064162
11.300000	0.107416	-0.065426
11.310000	0.110602	-0.066058
11.320000	0.111558	-0.067005
11.330000	0.113470	-0.067321
11.340000	0.109965	-0.068585
11.350000	0.109009	-0.069216
11.360000	0.113151	-0.070480
11.370000	0.110921	-0.070796
11.380000	0.110602	-0.071112
11.390000	0.110921	-0.071428
11.400000	0.114107	-0.072375
11.410000	0.114745	-0.072375
11.420000	0.113789	-0.072691
11.430000	0.113151	-0.074271
11.440000	0.109965	-0.074586
11.450000	0.115382	-0.074586
11.460000	0.112514	-0.074271
11.470000	0.110602	-0.074902
11.480000	0.112833	-0.075534
11.490000	0.112514	-0.075534
11.500000	0.115700	-0.076798
11.510000	0.112833	-0.076166
11.520000	0.113789	-0.078061
11.530000	0.114745	-0.077114
11.540000	0.115382	-0.077429
11.550000	0.110921	-0.078061
11.560000	0.112514	-0.077745
11.570000	0.110284	-0.078377
11.580000	0.113470	-0.078377
11.590000	0.110921	-0.078061
11.600000	0.114107	-0.078693
11.610000	0.112514	-0.078693
11.620000	0.112833	-0.079325
11.630000	0.111558	-0.079641
11.640000	0.114426	-0.079641
11.650000	0.112195	-0.079325
11.660000	0.111558	-0.079641
11.670000	0.111877	-0.079956
11.680000	0.110921	-0.079641
11.690000	0.111239	-0.079641
11.700000	0.108053	-0.080588
11.710000	0.114426	-0.080272
11.720000	0.111239	-0.080588
11.730000	0.110284	-0.080904
11.740000	0.113470	-0.080272
11.750000	0.109646	-0.080904
11.760000	0.112514	-0.080904
11.770000	0.112514	-0.080904
11.780000	0.112514	-0.080904
11.790000	0.110602	-0.080588
11.800000	0.106460	-0.081536
11.810000	0.108053	-0.080904
11.820000	0.109965	-0.081220
11.830000	0.109328	-0.081852
11.840000	0.111239	-0.081220
11.850000	0.107734	-0.081536
11.860000	0.111558	-0.081220
11.870000	0.110921	-0.081220
11.880000	0.111558	-0.081220
11.890000	0.107734	-0.081852
11.900000	0.108690	-0.081536
11.910000	0.109009	-0.081536
11.920000	0.107734	-0.081852
11.930000	0.106141	-0.081852
11.940000	0.106778	-0.081852
11.950000	0.105185	-0.082799
11.960000	0.109009	-0.081536
11.970000	0.107734	-0.082168
11.980000	0.105823	-0.082799
11.990000	0.103911	-0.083115
12.000000	0.107734	-0.082168
12.010000	0.107734	-0.082483
12.020000	0.105185	-0.081852
12.030000	0.105823	-0.082799
12.040000	0.104548	-0.082483
12.050000	0.103273	-0.083431
12.060000	0.105823	-0.082168
12.070000	0.104867	-0.083115
12.080000	0.107734	-0.082483
12.090000	0.107416	-0.083115
12.100000	0.107416	-0.082799
12.110000	0.106778	-0.083431
12.120000	0.105185	-0.082168
12.130000	0.105185	-0.083431
12.140000	0.106778	-0.082168
12.150000	0.105185	-0.083747
12.160000	0.107097	-0.083115
12.170000	0.103273	-0.084063
12.180000	0.105504	-0.083115
12.190000	0.106141	-0.083115
12.200000	0.104229	-0.082799
12.210000	0.105185	-0.083431
12.220000	0.102317	-0.083115
12.230000	0.103273	-0.083747
12.240000	0.105185	-0.082483
12.250000	0.105504	-0.083431
12.260000	0.104229	-0.082799
12.270000	0.099768	-0.084063
12.280000	0.102317	-0.083115
12.290000	0.102955	-0.083115
12.300000	0.099768	-0.082799
12.310000	0.104548	-0.084063
12.320000	0.100406	-0.083115
12.330000	0.103273	-0.084063
12.340000	0.102955	-0.082483
12.350000	0.101362	-0.084379
12.360000	0.103273	-0.083115
12.370000	0.100087	-0.084063
12.380000	0.102636	-0.082483
12.390000	0.103592	-0.083747
12.400000	0.101043	-0.083431
12.410000	0.103592	-0.083747
12.420000	0.101043	-0.083431
12.430000	0.103911	-0.084379
12.440000	0.101043	-0.083747
12.450000	0.101043	-0.083747
12.460000	0.100724	-0.083115
12.470000	0.100724	-0.084063
12.480000	0.101043	-0.083747
12.490000	0.100087	-0.084379
12.500000	0.101999	-0.083115
12.510000	0.102636	-0.084379
12.520000	0.099450	-0.083747
12.530000	0.102317	-0.084379
12.540000	0.099768	-0.084063
12.550000	0.102317	-0.084063
12.560000	0.099131	-0.083115
12.570000	0.100406	-0.084063
12.580000	0.100724	-0.084063
12.590000	0.101999	-0.083747
12.600000	0.101999	-0.084695
12.610000	0.100087	-0.083747
12.620000	0.100087	-0.084379
12.630000	0.101999	-0.083747
12.640000	0.101362	-0.083747
12.650000	0.101680	-0.084063
12.660000	0.095945	-0.084063
12.670000	0.101362	-0.083747
12.680000	0.099131	-0.084379
12.690000	0.100406	-0.083747
12.700000	0.102317	-0.084379
12.710000	0.099450	-0.083431
12.720000	0.102317	-0.084379
12.730000	0.102317	-0.083431
12.740000	0.100406	-0.083747
12.750000	0.099450	-0.084063
12.760000	0.101680	-0.083747
12.770000	0.100724	-0.084063
12.780000	0.100087	-0.084379
12.790000	0.100087	-0.084063
12.800000	0.098494	-0.084379
12.810000	0.097856	-0.084379
12.820000	0.098175	-0.083747
12.830000	0.099131	-0.084379
12.840000	0.100724	-0.084063
12.850000	0.098175	-0.084379
12.860000	0.095307	-0.084063
12.870000	0.099131	-0.084379
12.880000	0.097856	-0.084063
12.890000	0.098812	-0.083431
12.900000	0.101043	-0.084063
12.910000	0.096901	-0.083747
12.920000	0.101362	-0.083747
12.930000	0.099131	-0.084063
12.940000	0.098494	-0.083747
12.950000	0.096582	-0.083747
12.960000	0.099450	-0.084379
12.970000	0.099131	-0.084695
12.980000	0.094351	-0.085011
12.990000	0.097219	-0.084063
13.000000	0.098812	-0.084695
13.010000	0.096901	-0.083747
13.020000	0.100087	-0.084695
13.030000	0.099131	-0.083747
13.040000	0.096901	-0.085011
13.050000	0.098494	-0.083747
13.060000	0.096582	-0.084695
13.070000	0.099131	-0.084379
13.080000	0.103592	-0.085326
13.090000	0.097538	-0.083747
13.100000	0.095945	-0.084063
13.110000	0.098812	-0.083747
13.120000	0.095945	-0.085011
13.130000	0.099131	-0.084379
13.140000	0.096901	-0.085011
13.150000	0.096263	-0.083431
13.160000	0.098812	-0.084379
13.170000	0.100087	-0.084379
13.180000	0.096582	-0.084695
13.190000	0.097219	-0.083747
13.200000	0.095626	-0.084695
13.210000	0.099131	-0.084695
13.220000	0.096901	-0.085326
13.230000	0.097856	-0.084379
13.240000	0.095945	-0.085011
13.250000	0.095626	-0.084063
13.260000	0.098175	-0.084379
13.270000	0.096582	-0.083747
13.280000	0.093077	-0.084695
13.290000	0.094989	-0.083747
13.300000	0.097856	-0.084379
13.310000	0.094670	-0.084695
13.320000	0.094989	-0.084695
13.330000	0.094033	-0.084063
13.340000	0.095626	-0.085011
13.350000	0.096582	-0.084695
13.360000	0.097856	-0.084695
13.370000	0.096901	-0.084379
13.380000	0.097219	-0.084379
13.390000	0.092758	-0.085011
13.400000	0.094989	-0.085326
13.410000	0.094989	-0.084379
13.420000	0.092758	-0.084063
13.430000	0.096582	-0.084695
13.440000	0.094351	-0.084379
13.450000	0.094989	-0.085011
13.460000	0.096582	-0.084695
13.470000	0.095945	-0.084379
13.480000	0.091802	-0.085011
13.490000	0.093395	-0.084063
13.500000	0.094033	-0.084379
13.510000	0.097856	-0.084695
13.520000	0.097538	-0.085326
13.530000	0.095626	-0.084379
13.540000	0.092758	-0.084695
13.550000	0.094351	-0.084063
13.560000	0.093714	-0.084695
13.570000	0.094351	-0.084695
13.580000	0.095307	-0.085326
13.590000	0.096901	-0.084063
13.600000	0.094989	-0.085326
13.610000	0.093395	-0.084063
13.620000	0.095945	-0.084695
13.630000	0.093395	-0.084379
13.640000	0.092758	-0.084379
13.650000	0.094989	-0.085326
13.660000	0.093077	-0.084379
13.670000	0.093395	-0.084379
13.680000	0.096582	-0.084695
13.690000	0.096263	-0.084695
13.700000	0.093714	-0.085011
13.710000	0.093077	-0.084695
13.720000	0.095626	-0.085011
13.730000	0.095307	-0.084695
13.740000	0.095307	-0.084695
13.750000	0.096263	-0.084379
13.760000	0.093395	-0.085011
13.770000	0.090209	-0.084379
13.780000	0.091165	-0.085326
13.790000	0.094033	-0.084695
13.800000	0.094033	-0.085011
13.810000	0.092758	-0.084379
13.820000	0.094670	-0.085011
13.830000	0.094670	-0.085642
13.840000	0.095307	-0.085011
13.850000	0.091802	-0.084695
13.860000	0.094351	-0.084695
13.870000	0.096263	-0.085011
13.880000	0.094033	-0.085011
13.890000	0.091165	-0.085326
13.900000	0.091165	-0.084379
13.910000	0.095626	-0.085326
13.920000	0.094670	-0.084695
13.930000	0.090209	-0.085011
13.940000	0.093714	-0.085326
13.950000	0.092440	-0.085326
13.960000	0.089890	-0.085011
13.970000	0.094033	-0.085642
13.980000	0.095307	-0.085326
13.990000	0.090528	-0.084379
14.000000	0.094033	-0.085326
14.010000	0.090528	-0.084695
14.020000	0.092121	-0.085642
14.030000	0.092440	-0.085958
14.040000	0.093714	-0.084695
14.050000	0.094351	-0.085326
14.060000	0.090528	-0.084695
14.070000	0.091484	-0.086274
14.080000	0.089572	-0.085011
14.090000	0.090846	-0.085011
14.100000	0.091165	-0.085011
14.110000	0.094033	-0.085326
14.120000	0.091802	-0.085326
14.130000	0.091484	-0.085011
14.140000	0.091802	-0.084695
14.150000	0.091802	-0.085326
14.160000	0.089253	-0.085326
14.170000	0.091484	-0.085011
14.180000	0.093714	-0.085958
14.190000	0.094033	-0.085642
14.200000	0.090209	-0.085326
14.210000	0.090846	-0.085642
14.220000	0.092121	-0.085642
14.230000	0.091802	-0.085642
14.240000	0.091484	-0.085011
14.250000	0.090209	-0.085958
14.260000	0.092758	-0.085011
14.270000	0.089572	-0.085642
14.280000	0.088934	-0.085011
14.290000	0.091484	-0.085958
14.300000	0.090846	-0.085642
14.310000	0.088934	-0.085326
14.320000	0.090846	-0.085011
14.330000	0.089253	-0.085011
14.340000	0.090846	-0.085326
14.350000	0.090846	-0.085326
14.360000	0.088616	-0.085642
14.370000	0.085748	-0.085011
14.380000	0.089253	-0.085642
14.390000	0.089253	-0.085326
14.400000	0.091165	-0.085326
14.410000	0.091484	-0.084695
14.420000	0.089253	-0.085642
14.430000	0.091802	-0.085011
14.440000	0.090209	-0.085642
14.450000	0.089890	-0.084695
14.460000	0.092121	-0.085326
14.470000	0.089572	-0.085326
14.480000	0.089253	-0.084695
14.490000	0.092440	-0.083431
14.500000	0.086067	-0.082483
14.510000	0.092121	-0.082168
14.520000	0.089572	-0.080904
14.530000	0.089890	-0.079641
14.540000	0.092121	-0.078377
14.550000	0.089572	-0.076166
14.560000	0.091802	-0.074902
14.570000	0.089572	-0.073639
14.580000	0.091802	-0.071744
14.590000	0.089253	-0.069532
14.600000	0.087660	-0.068901
14.610000	0.089253	-0.067005
14.620000	0.088934	-0.066374
14.630000	0.089890	-0.064478
14.640000	0.092758	-0.063531
14.650000	0.089572	-0.063847
14.660000	0.091165	-0.062583
14.670000	0.087660	-0.061951
14.680000	0.089572	-0.061319
14.690000	0.087341	-0.060372
14.700000	0.088297	-0.060372
14.710000	0.091165	-0.059740
14.720000	0.087023	-0.059424
14.730000	0.088934	-0.058161
14.740000	0.090528	-0.058477
14.750000	0.087979	-0.057213
14.760000	0.088297	-0.057529
14.770000	0.088616	-0.055949
14.780000	0.087979	-0.055318
14.790000	0.089890	-0.054054
14.800000	0.088616	-0.054054
14.810000	0.089890	-0.053107
14.820000	0.089890	-0.052791
14.830000	0.091165	-0.052791
14.840000	0.089890	-0.051843
14.850000	0.087660	-0.052475
14.860000	0.087660	-0.051211
14.870000	0.090846	-0.051843
14.880000	0.087341	-0.052475
14.890000	0.083836	-0.051843
14.900000	0.085111	-0.051211
14.910000	0.087341	-0.052475
14.920000	0.088934	-0.051527
14.930000	0.088616	-0.053422
14.940000	0.089572	-0.052159
14.950000	0.087660	-0.052159
14.960000	0.088297	-0.051211
14.970000	0.089253	-0.051211
14.980000	0.086704	-0.050895
14.990000	0.087979	-0.050264
15.000000	0.084792	-0.050895
15.010000	0.086704	-0.050895
15.020000	0.089253	-0.051843
15.030000	0.087979	-0.051211
15.040000	0.087341	-0.051843
15.050000	0.089890	-0.052791
15.060000	0.085111	-0.050895
15.070000	0.087023	-0.051843
15.080000	0.087979	-0.051211
15.090000	0.087660	-0.051843
15.100000	0.087979	-0.051843
15.110000	0.087023	-0.051211
15.120000	0.089253	-0.051527
15.130000	0.089890	-0.051211
15.140000	0.089572	-0.050895
15.150000	0.085748	-0.050895
15.160000	0.084473	-0.050895
15.170000	0.087023	-0.049632
15.180000	0.084473	-0.050580
15.190000	0.084155	-0.049632
15.200000	0.086385	-0.050580
15.210000	0.089572	-0.050580
15.220000	0.087341	-0.050580
15.230000	0.089253	-0.050264
15.240000	0.087660	-0.050264
15.250000	0.089253	-0.050580
15.260000	0.088616	-0.051527
15.270000	0.090528	-0.051843
15.280000	0.088297	-0.052475
15.290000	0.088297	-0.052159
15.300000	0.087341	-0.053738
15.310000	0.089572	-0.052791
15.320000	0.087023	-0.054370
15.330000	0.086385	-0.054054
15.340000	0.087979	-0.054686
15.350000	0.088297	-0.054686
15.360000	0.087979	-0.055002
15.370000	0.086067	-0.054686
15.380000	0.089890	-0.055318
15.390000	0.085748	-0.055634
15.400000	0.086385	-0.056265
15.410000	0.084792	-0.055949
15.420000	0.085111	-0.055949
15.430000	0.087023	-0.055318
15.440000	0.086704	-0.055002
15.450000	0.088297	-0.055002
15.460000	0.086704	-0.055949
15.470000	0.085429	-0.055949
15.480000	0.086704	-0.055002
15.490000	0.086067	-0.055318
15.500000	0.087023	-0.055634
15.510000	0.086385	-0.055634
15.520000	0.086704	-0.056265
15.530000	0.087023	-0.055634
15.540000	0.085748	-0.055949
15.550000	0.086385	-0.055949
15.560000	0.085429	-0.055949
15.570000	0.084155	-0.056265
15.580000	0.085748	-0.056897
15.590000	0.087341	-0.057529
15.600000	0.086385	-0.057529
15.610000	0.086704	-0.056581
15.620000	0.085748	-0.057845
15.630000	0.086385	-0.058161
15.640000	0.087341	-0.058161
15.650000	0.086067	-0.057529
15.660000	0.087341	-0.058477
15.670000	0.087341	-0.058477
15.680000	0.085111	-0.058792
15.690000	0.086067	-0.058161
15.700000	0.086067	-0.060056
15.710000	0.088616	-0.059108
15.720000	0.085429	-0.060372
15.730000	0.085748	-0.060056
15.740000	0.086385	-0.061004
15.750000	0.084155	-0.060056
15.760000	0.087341	-0.061004
15.770000	0.086067	-0.061004
15.780000	0.087023	-0.061951
15.790000	0.087341	-0.061319
15.800000	0.085111	-0.061004
15.810000	0.085429	-0.061635
15.820000	0.088934	-0.062583
15.830000	0.087023	-0.061635
15.840000	0.084155	-0.062267
15.850000	0.086704	-0.062899
15.860000	0.086067	-0.062583
15.870000	0.085748	-0.062899
15.880000	0.085111	-0.062899
15.890000	0.084155	-0.062899
15.900000	0.085111	-0.061951
15.910000	0.086067	-0.063215
15.920000	0.087341	-0.061951
15.930000	0.084792	-0.063531
15.940000	0.083518	-0.062899
15.950000	0.084792	-0.063215
15.960000	0.085111	-0.062267
15.970000	0.086067	-0.064162
15.980000	0.086067	-0.062583
15.990000	0.086385	-0.063847
16.000000	0.084792	-0.063215
16.010000	0.084473	-0.063847
16.020000	0.084792	-0.063531
16.030000	0.084792	-0.063215
16.040000	0.085748	-0.063847
16.050000	0.087341	-0.064162
16.060000	0.087979	-0.063215
16.070000	0.085111	-0.063847
16.080000	0.084473	-0.064478
16.090000	0.085111	-0.064162
16.100000	0.085748	-0.065110
16.110000	0.086067	-0.064794
16.120000	0.085429	-0.064478
16.130000	0.085111	-0.064478
16.140000	0.084155	-0.063531
16.150000	0.087023	-0.065110
16.160000	0.084155	-0.064478
16.170000	0.083199	-0.064794
16.180000	0.086385	-0.064478
16.190000	0.085748	-0.065110
16.200000	0.084473	-0.064794
16.210000	0.086704	-0.065110
16.220000	0.084792	-0.064478
16.230000	0.086704	-0.065426
16.240000	0.086704	-0.064478
16.250000	0.086067	-0.064478
16.260000	0.086067	-0.065426
16.270000	0.083836	-0.064478
16.280000	0.086704	-0.065742
16.290000	0.085748	-0.064162
16.300000	0.085111	-0.065110
16.310000	0.083199	-0.064794
16.320000	0.085111	-0.065426
16.330000	0.085111	-0.064794
16.340000	0.085748	-0.064794
16.350000	0.083836	-0.065742
16.360000	0.082562	-0.065742
16.370000	0.086385	-0.065742
16.380000	0.082562	-0.065426
16.390000	0.084473	-0.065110
16.400000	0.084155	-0.065110
16.410000	0.082880	-0.065110
16.420000	0.082243	-0.066058
16.430000	0.087023	-0.065426
16.440000	0.087023	-0.065426
16.450000	0.086385	-0.065742
16.460000	0.086385	-0.065426
16.470000	0.087023	-0.065110
16.480000	0.083518	-0.065426
16.490000	0.089253	-0.064794
16.500000	0.086067	-0.066058
16.510000	0.085748	-0.065426
16.520000	0.083836	-0.065110
16.530000	0.086704	-0.065426
16.540000	0.084792	-0.064478
16.550000	0.084155	-0.065426
16.560000	0.086067	-0.065426
16.570000	0.085111	-0.065742
16.580000	0.088934	-0.065426
16.590000	0.085748	-0.065110
16.600000	0.083518	-0.065110
16.610000	0.082243	-0.064794
16.620000	0.082243	-0.065110
16.630000	0.084792	-0.065110
16.640000	0.087341	-0.064794
16.650000	0.086704	-0.065110
16.660000	0.084473	-0.065110
16.670000	0.085111	-0.065110
16.680000	0.085111	-0.064478
16.690000	0.083518	-0.065426
16.700000	0.085111	-0.064162
16.710000	0.081924	-0.064794
16.720000	0.085748	-0.066058
16.730000	0.086067	-0.065426
16.740000	0.086704	-0.065110
16.750000	0.084792	-0.064794
16.760000	0.085748	-0.065110
16.770000	0.083518	-0.064794
16.780000	0.084473	-0.065426
16.790000	0.083199	-0.064794
16.800000	0.084473	-0.065426
16.810000	0.083836	-0.065426
16.820000	0.084792	-0.064794
16.830000	0.084792	-0.064478
16.840000	0.085748	-0.065110
16.850000	0.083518	-0.065426
16.860000	0.084792	-0.064794
16.870000	0.082880	-0.065742
16.880000	0.085111	-0.065110
16.890000	0.085748	-0.065742
16.900000	0.085429	-0.065426
16.910000	0.084792	-0.066374
16.920000	0.084792	-0.064478
16.930000	0.084792	-0.064794
16.940000	0.085429	-0.064478
16.950000	0.085429	-0.065110
16.960000	0.083199	-0.065110
16.970000	0.086067	-0.065110
16.980000	0.085111	-0.065110
16.990000	0.083836	-0.066058
17.000000	0.085111	-0.065426
17.010000	0.085429	-0.065110
17.020000	0.083199	-0.066374
17.030000	0.085429	-0.065426
17.040000	0.082880	-0.066058
17.050000	0.087023	-0.065426
17.060000	0.084155	-0.065742
17.070000	0.084473	-0.066058
17.080000	0.085748	-0.064794
17.090000	0.085748	-0.064794
17.100000	0.080968	-0.065426
17.110000	0.084792	-0.064478
17.120000	0.084155	-0.065742
17.130000	0.083518	-0.065426
17.140000	0.083199	-0.064794
17.150000	0.081606	-0.064478
17.160000	0.081924	-0.065426
17.170000	0.082243	-0.064794
17.180000	0.081606	-0.065110
17.190000	0.082243	-0.065110
17.200000	0.079375	-0.065426
17.210000	0.078419	-0.064794
17.220000	0.078101	-0.065742
17.230000	0.077145	-0.064478
17.240000	0.075233	-0.063847
17.250000	0.074596	-0.062899
17.260000	0.074277	-0.062267
17.270000	0.073321	-0.062583
17.280000	0.074277	-0.060688
17.290000	0.073321	-0.060056
17.300000	0.071409	-0.058792
17.310000	0.071409	-0.058792
17.320000	0.071090	-0.058477
17.330000	0.067904	-0.057529
17.340000	0.066948	-0.056265
17.350000	0.066311	-0.056265
17.360000	0.065355	-0.055002
17.370000	0.064399	-0.054686
17.380000	0.064718	-0.054054
17.390000	0.061531	-0.052791
17.400000	0.062806	-0.051211
17.410000	0.061531	-0.050580
17.420000	0.061213	-0.049316
17.430000	0.061213	-0.048368
17.440000	0.059301	-0.047737
17.450000	0.058026	-0.047421
17.460000	0.057707	-0.045841
17.470000	0.055477	-0.044894
17.480000	0.055158	-0.044894
17.490000	0.053884	-0.043314
17.500000	0.053565	-0.042682
17.510000	0.053246	-0.041735
17.520000	0.051653	-0.040787
17.530000	0.049741	-0.040155
17.540000	0.049423	-0.038576
17.550000	0.048148	-0.038576
17.560000	0.048148	-0.036681
17.570000	0.044962	-0.036365
17.580000	0.045280	-0.035417
17.590000	0.044962	-0.034154
17.600000	0.043050	-0.033838
17.610000	0.042413	-0.032258
17.620000	0.041775	-0.030995
17.630000	0.039545	-0.030679
17.640000	0.039226	-0.029415
17.650000	0.038270	-0.029100
17.660000	0.037633	-0.025941
17.670000	0.036677	-0.026573
17.680000	0.036040	-0.024361
17.690000	0.034765	-0.023098
17.700000	0.033491	-0.021834
17.710000	0.032535	-0.021518
17.720000	0.032535	-0.020887
17.730000	0.031579	-0.018676
17.740000	0.030304	-0.018044
17.750000	0.029667	-0.017096
17.760000	0.028711	-0.015201
17.770000	0.027436	-0.015517
17.780000	0.027436	-0.013306
17.790000	0.026480	-0.012990
17.800000	0.024887	-0.012042
17.810000	0.024569	-0.011094
17.820000	0.023613	-0.010147
17.830000	0.022975	-0.010147
17.840000	0.021701	-0.009515
17.850000	0.021063	-0.008883
17.860000	0.019789	-0.007620
17.870000	0.019789	-0.007304
17.880000	0.018514	-0.007620
17.890000	0.018514	-0.005724
17.900000	0.016921	-0.005724
17.910000	0.017240	-0.003513
17.920000	0.015965	-0.005409
17.930000	0.015328	-0.003829
17.940000	0.014691	-0.003513
17.950000	0.014053	-0.002881
17.960000	0.013416	-0.003197
17.970000	0.012460	-0.002881
17.980000	0.012460	-0.002881
17.990000	0.011186	-0.002881
18.000000	0.009911	-0.002566
18.010000	0.010867	-0.001934
18.020000	0.009592	-0.002250
18.030000	0.009911	-0.002250
18.040000	0.008318	-0.001934
18.050000	0.007999	-0.001618
18.060000	0.007362	-0.001618
18.070000	0.007043	-0.002250
18.080000	0.006087	-0.001618
18.090000	0.006087	-0.001618
18.100000	0.004813	-0.001618
18.110000	0.004494	-0.002250
18.120000	0.004494	-0.001618
18.130000	0.004494	-0.001618
18.140000	0.003538	-0.001934
18.150000	0.002901	-0.002566
18.160000	0.002582	-0.001618
18.170000	0.002582	-0.000670
18.180000	0.002901	-0.001618
18.190000	0.002264	-0.000670
18.200000	0.001626	-0.000670
18.210000	0.001945	-0.000986
18.220000	0.002264	-0.000354
18.230000	0.001308	-0.000354
18.240000	0.002582	-0.000354
18.250000	0.001945	-0.000670
18.260000	0.001626	-3.854300E-5
18.270000	0.002582	-0.000354
18.280000	0.001945	-0.000354
18.290000	0.002582	-3.854300E-5
18.300000	0.001626	-0.000670
18.310000	0.003219	-3.854300E-5
18.320000	0.001945	-0.000670
18.330000	0.001626	-3.854300E-5
18.340000	0.002901	-0.000354
18.350000	0.002264	-3.854300E-5
18.360000	0.002264	-0.000670
18.370000	0.001626	-3.854300E-5
18.380000	0.001945	-0.000354
18.390000	0.001626	-0.000354
18.400000	0.001945	-0.000670
18.410000	0.002264	-0.000354
18.420000	0.001945	-3.854300E-5
18.430000	0.001945	-0.001302
18.440000	0.002264	-3.854300E-5
18.450000	0.001626	-0.000354
18.460000	0.002264	-0.000670
18.470000	0.002264	-0.000354
18.480000	0.001308	-3.854300E-5
18.490000	0.001945	0.000277
18.500000	0.001308	-0.000354
18.510000	0.001626	-0.000354
18.520000	0.002264	-0.000354
18.530000	0.001308	-0.000354
18.540000	0.002582	-3.854300E-5
18.550000	0.001626	-0.000670
18.560000	0.002264	0.000593
18.570000	0.002264	-0.000354
18.580000	0.001626	-0.000354
18.590000	0.001945	-0.000670
18.600000	0.001626	-0.000354
18.610000	0.002582	-0.000354
18.620000	0.001945	-0.000354
18.630000	0.001626	-3.854300E-5
18.640000	0.001945	0.000593
18.650000	0.001626	-0.000986
18.660000	0.002264	-3.854300E-5
18.670000	0.001945	-0.000354
18.680000	0.001626	-3.854300E-5
18.690000	0.002582	-3.854300E-5
18.700000	0.001308	-0.001302
18.710000	0.002582	-0.000354
18.720000	0.001626	-3.854300E-5
18.730000	0.001945	-0.000354
18.740000	0.001945	0.000277
18.750000	0.001626	-0.000670
18.760000	0.001945	-0.000354
18.770000	0.001626	-3.854300E-5
18.780000	0.001626	-0.000670
18.790000	0.002264	-3.854300E-5
18.800000	0.001626	-0.000354
18.810000	0.001626	-0.000354
18.820000	0.001945	-3.854300E-5
18.830000	0.002582	-0.000986
18.840000	0.001945	0.000277
18.850000	0.002264	-0.000354
18.860000	0.002264	-3.854300E-5
18.870000	0.001626	-0.000670
18.880000	0.001626	-0.000354
18.890000	0.002264	-0.000354
18.900000	0.002264	-0.000354
18.910000	0.001945	-3.854300E-5
18.920000	0.001945	-0.000354
18.930000	0.001945	-0.000354
18.940000	0.001626	-3.854300E-5
18.950000	0.001945	-0.000670
18.960000	0.001945	-3.854300E-5
18.970000	0.001945	-0.000354
18.980000	0.001945	-0.000354
18.990000	0.001626	-0.000354
19.000000	0.002264	-0.000354
19.010000	0.002582	-0.000354
19.020000	0.002264	-0.000354
19.030000	0.001945	-0.000354
19.040000	0.001945	-0.000354
19.050000	0.001945	-0.000354
19.060000	0.001626	0.000277
19.070000	0.002264	-3.854300E-5
19.080000	0.002582	-3.854300E-5
19.090000	0.001945	-3.854300E-5
19.100000	0.001626	0.000277
19.110000	0.002582	-0.000354
19.120000	0.001626	-0.000670
19.130000	0.002264	-0.000354
19.140000	0.002582	-3.854300E-5
19.150000	0.002264	-0.000670
19.160000	0.002582	0.000593
19.170000	0.002264	-0.000986
19.180000	0.001626	-0.000354
19.190000	0.001945	0.000909
19.200000	0.001945	-0.000354
19.210000	0.002582	-3.854300E-5
19.220000	0.001626	-0.000354
19.230000	0.001945	-3.854300E-5
19.240000	0.001626	-0.000354
19.250000	0.001945	0.000277
19.260000	0.001945	-3.854300E-5
19.270000	0.001945	-0.000670
19.280000	0.002582	-0.000354
19.290000	0.001945	-0.000670
19.300000	0.001626	-0.000354
19.310000	0.002582	0.000277
19.320000	0.001945	-3.854300E-5
19.330000	0.001945	-0.000354
19.340000	0.001626	0.000277
19.350000	0.001945	-0.000670
19.360000	0.001945	-3.854300E-5
19.370000	0.001945	-0.000670
19.380000	0.001945	-3.854300E-5
19.390000	0.001626	-0.000354
19.400000	0.001308	-0.000354
19.410000	0.001626	-0.000354
19.420000	0.001626	-3.854300E-5
19.430000	0.001945	-0.000354
19.440000	0.001626	-0.000354
19.450000	0.002264	-3.854300E-5
19.460000	0.002264	-3.854300E-5
19.470000	0.001626	-0.000354
19.480000	0.002264	-3.854300E-5
19.490000	0.001308	0.000277
19.500000	0.001626	-3.854300E-5
19.510000	0.000989	-0.000354
19.520000	0.001945	-0.000354
19.530000	0.001626	-3.854300E-5
19.540000	0.001626	-3.854300E-5
19.550000	0.002264	-3.854300E-5
19.560000	0.001626	-0.000986
19.570000	0.001945	-3.854300E-5
19.580000	0.001626	-0.000354
19.590000	0.001308	0.000593
19.600000	0.001626	-0.000354
19.610000	0.001626	-3.854300E-5
19.620000	0.001945	-0.000670
19.630000	0.001945	-0.000354
19.640000	0.001945	-3.854300E-5
19.650000	0.001945	-0.000354
19.660000	0.001945	-3.854300E-5
19.670000	0.001945	-0.000354
19.680000	0.001945	-0.000670
19.690000	0.001945	-0.000354
19.700000	0.001945	-0.000354
19.710000	0.001945	-0.000354
19.720000	0.001308	-0.000354
19.730000	0.001945	-3.854300E-5
19.740000	0.002264	-3.854300E-5
19.750000	0.002264	0.000277
19.760000	0.001945	-3.854300E-5
19.770000	0.002264	-0.000670
19.780000	0.002264	-3.854300E-5
19.790000	0.001945	-3.854300E-5
19.800000	0.002264	-3.854300E-5
19.810000	0.001308	-0.000354
19.820000	0.001945	-3.854300E-5
19.830000	0.001945	-0.000670
19.840000	0.001626	-3.854300E-5
19.850000	0.001308	-0.000670
19.860000	0.001945	0.000277
19.870000	0.000989	-0.000670
19.880000	0.001945	-0.000354
19.890000	0.001626	-0.000354
19.900000	0.002264	-3.854300E-5
19.910000	0.002582	-3.854300E-5
19.920000	0.002264	0.000277
19.930000	0.001945	-3.854300E-5
19.940000	0.002264	-0.000354
19.950000	0.001945	-3.854300E-5
19.960000	0.002264	-0.000354
19.970000	0.001945	-3.854300E-5
19.980000	0.001945	-0.000354
19.990000	0.002264	-3.854300E-5
20.000000	0.001626	-0.001302
20.010000	0.002264	-3.854300E-5
20.020000	0.001945	-0.000354
20.030000	0.001945	-0.000354
20.040000	0.001945	-0.000354
20.050000	0.001945	0.000277
20.060000	0.001945	-0.000354
20.070000	0.001626	-3.854300E-5
20.080000	0.001626	-0.000354
20.090000	0.002582	-3.854300E-5
20.100000	0.002264	-0.000354
20.110000	0.001308	-3.854300E-5
20.120000	0.002264	-3.854300E-5
20.130000	0.001626	-0.000670
20.140000	0.001945	-3.854300E-5
20.150000	0.001945	-3.854300E-5
20.160000	0.001626	-3.854300E-5
20.170000	0.001626	-0.000354
20.180000	0.002264	-3.854300E-5
20.190000	0.001626	-3.854300E-5
20.200000	0.001626	-3.854300E-5
20.210000	0.001945	-3.854300E-5
20.220000	0.001626	-0.000670
20.230000	0.002264	0.000277
20.240000	0.002582	-0.000354
20.250000	0.001945	0.000277
20.260000	0.002582	0.000277
20.270000	0.001945	-0.000354
20.280000	0.001945	-0.000354
20.290000	0.002582	-0.000354
20.300000	0.001308	-0.000670
20.310000	0.001945	-0.000354
20.320000	0.001626	-0.000354
20.330000	0.001626	-3.854300E-5
20.340000	0.001945	-0.000354
20.350000	0.001308	-0.000354
20.360000	0.002582	-3.854300E-5
20.370000	0.002264	-0.000354
20.380000	0.001626	-3.854300E-5
20.390000	0.001945	-0.000670
20.400000	0.002582	-3.854300E-5
20.410000	0.001945	-0.000354
20.420000	0.002264	-3.854300E-5
20.430000	0.001626	-0.000354
20.440000	0.001626	-3.854300E-5
20.450000	0.001626	-0.000354
20.460000	0.001945	-3.854300E-5
20.470000	0.001626	-0.000354
20.480000	0.000670	-0.000670
20.490000	0.001945	-3.854300E-5
20.500000	0.001626	-0.000670
20.510000	0.001945	-3.854300E-5
20.520000	0.001945	-0.000354
20.530000	0.001945	-0.000354
20.540000	0.002264	-0.000354
20.550000	0.001626	-0.000354
20.560000	0.001945	-3.854300E-5
20.570000	0.002264	-0.000354
20.580000	0.001626	-0.000354
20.590000	0.002582	-0.000354
20.600000	0.002264	-3.854300E-5
20.610000	0.001945	-0.000354
20.620000	0.002582	-0.000354
20.630000	0.001308	-0.000354
20.640000	0.001626	-0.000670
20.650000	0.001945	-0.000354
20.660000	0.001626	0.000277
20.670000	0.001945	-0.000670
20.680000	0.001626	-0.000354
20.690000	0.001626	-0.000354
20.700000	0.002264	-0.000354
20.710000	0.002264	-3.854300E-5
20.720000	0.001945	-0.000354
20.730000	0.001308	-0.000354
20.740000	0.001945	-0.000354
20.750000	0.001626	-0.000354
20.760000	0.001945	0.000277
20.770000	0.001945	-0.000354
20.780000	0.001626	-0.000670
20.790000	0.001626	-0.000354
20.800000	0.001626	-0.000670
20.810000	0.001308	-0.000670
20.820000	0.001945	-0.000354
20.830000	0.001945	-3.854300E-5
20.840000	0.001945	-3.854300E-5
20.850000	0.001945	-0.000354
20.860000	0.001945	-3.854300E-5
20.870000	0.002901	-3.854300E-5
20.880000	0.002582	-3.854300E-5
20.890000	0.002582	-3.854300E-5
20.900000	0.002264	-3.854300E-5
20.910000	0.002264	-3.854300E-5
20.920000	0.002264	-3.854300E-5
20.930000	0.002264	-0.000670
20.940000	0.001626	-0.000670
20.950000	0.001945	-0.000354
20.960000	0.001626	-3.854300E-5
20.970000	0.001626	-0.000670
20.980000	0.001626	-3.854300E-5
20.990000	0.001626	-0.000354
21.000000	0.001626	-3.854300E-5
21.010000	0.002264	-0.000354
21.020000	0.001626	-0.000354
21.030000	0.002582	-0.000354
21.040000	0.002264	-3.854300E-5
21.050000	0.001626	-0.000354
21.060000	0.001945	-3.854300E-5
21.070000	0.001945	-0.000354
21.080000	0.002582	0.000593
21.090000	0.001945	-0.000354
21.100000	0.002264	-0.000354
21.110000	0.002264	-3.854300E-5
21.120000	0.001626	-0.000670
21.130000	0.002264	-0.000354
21.140000	0.001945	-0.000354
21.150000	0.001945	-0.000354
21.160000	0.002264	-3.854300E-5
21.170000	0.002264	-3.854300E-5
21.180000	0.002264	-3.854300E-5
21.190000	0.001945	-3.854300E-5
21.200000	0.001945	-0.000354
21.210000	0.001308	-3.854300E-5
21.220000	0.002582	-3.854300E-5
21.230000	0.000989	-0.000670
21.240000	0.001626	-3.854300E-5
21.250000	0.001945	-0.000354
21.260000	0.001626	0.000277
21.270000	0.001626	-3.854300E-5
21.280000	0.001626	-0.000670
21.290000	0.002264	-0.000354
21.300000	0.002264	-0.000354
21.310000	0.001626	-0.000354
21.320000	0.002264	-0.000354
21.330000	0.002264	0.000277
21.340000	0.001945	-3.854300E-5
21.350000	0.002264	-3.854300E-5
21.360000	0.001626	-0.000354
21.370000	0.002264	-0.000354
21.380000	0.002264	-0.000354
21.390000	0.001945	-0.000986
21.400000	0.001945	-0.000670
21.410000	0.001945	-3.854300E-5
21.420000	0.001945	-0.000354
21.430000	0.002264	-0.000354
21.440000	0.001626	-0.000354
21.450000	0.000670	-0.000354
21.460000	0.002264	-0.000354
21.470000	0.001945	-0.000670
21.480000	0.000989	0.000277
21.490000	0.001945	-0.000354
21.500000	0.001626	-0.000670
21.510000	0.001945	-3.854300E-5
21.520000	0.001945	-0.000354
21.530000	0.001945	-3.854300E-5
21.540000	0.001945	-0.000354
21.550000	0.001626	-0.000354
21.560000	0.001945	-0.000670
21.570000	0.001945	0.000277
21.580000	0.001626	-0.000354
21.590000	0.001945	-3.854300E-5
21.600000	0.001626	-0.000354
21.610000	0.002264	-3.854300E-5
21.620000	0.002582	-0.000354
21.630000	0.002264	-3.854300E-5
21.640000	0.001945	-3.854300E-5
21.650000	0.002264	-0.000354
21.660000	0.002264	-0.000354
21.670000	0.001945	-3.854300E-5
21.680000	0.001945	-3.854300E-5
21.690000	0.002264	-0.000354
21.700000	0.001626	-3.854300E-5
21.710000	0.002901	-3.854300E-5
21.720000	0.001945	-3.854300E-5
21.730000	0.002264	-0.000354
21.740000	0.001945	-0.000354
21.750000	0.000989	-0.000354
21.760000	0.002264	-0.000354
21.770000	0.001626	-3.854300E-5
21.780000	0.001626	-0.000354
21.790000	0.002582	0.000277
21.800000	0.001626	-3.854300E-5
21.810000	0.002264	0.000593
21.820000	0.001945	-0.000354
21.830000	0.002264	0.000593
21.840000	0.001945	-0.000354
21.850000	0.001308	-0.000354
21.860000	0.001945	-0.000354
21.870000	0.001945	-0.000354
21.880000	0.001308	-0.000354
21.890000	0.001945	-0.000354
21.900000	0.001626	-3.854300E-5
21.910000	0.002264	-0.000354
21.920000	0.002582	-3.854300E-5
21.930000	0.001308	-0.000670
21.940000	0.002582	0.000277
21.950000	0.001945	-0.000354
21.960000	0.001945	-3.854300E-5
21.970000	0.002264	-3.854300E-5
21.980000	0.002264	-0.000354
21.990000	0.001945	-0.000670
22.000000	0.001945	-3.854300E-5
22.010000	0.001626	-0.000354
22.020000	0.001308	-3.854300E-5
22.030000	0.002264	-0.000354
22.040000	0.002264	-0.000354
22.050000	0.001626	-3.854300E-5
22.060000	0.001945	-3.854300E-5
22.070000	0.001626	-0.000354
22.080000	0.001626	-0.000354
22.090000	0.002582	0.000277
22.100000	0.001626	-3.854300E-5
22.110000	0.002582	-3.854300E-5
22.120000	0.001308	-0.000354
22.130000	0.002264	-3.854300E-5
22.140000	0.001945	-0.000354
22.150000	0.001626	-3.854300E-5
22.160000	0.001945	-3.854300E-5
22.170000	0.001626	-3.854300E-5
22.180000	0.001626	-0.000354
22.190000	0.002582	-3.854300E-5
22.200000	0.001945	-0.000670
22.210000	0.002582	0.000277
22.220000	0.001626	-0.000354
22.230000	0.001945	-0.000354
22.240000	0.002264	-3.854300E-5
22.250000	0.001308	-3.854300E-5
22.260000	0.002264	-0.000354
22.270000	0.002264	-0.000354
22.280000	0.001945	-0.000354
22.290000	0.001945	-3.854300E-5
22.300000	0.001626	-0.000354
22.310000	0.001626	-0.000354
22.320000	0.002264	-0.000354
22.330000	0.001626	-0.000670
22.340000	0.001626	-3.854300E-5
22.350000	0.002582	-0.000354
22.360000	0.001945	-0.000354
22.370000	0.001626	-0.000354
22.380000	0.001308	-3.854300E-5
22.390000	0.001945	-3.854300E-5
22.400000	0.001945	-0.000354
22.410000	0.001945	-3.854300E-5
22.420000	0.001626	-0.000354
22.430000	0.001626	-0.000354
22.440000	0.001945	-0.000354
22.450000	0.001945	-0.000670
22.460000	0.002264	-0.000354
22.470000	0.001945	-0.000354
22.480000	0.002264	-3.854300E-5
22.490000	0.001626	-0.000670
22.500000	0.001945	-0.000670
22.510000	0.001945	-3.854300E-5
22.520000	0.001945	-0.000670
22.530000	0.002264	0.000593
22.540000	0.002264	-3.854300E-5
22.550000	0.001945	-3.854300E-5
22.560000	0.002264	-0.000354
22.570000	0.002264	-0.000670
22.580000	0.002264	-0.000354
22.590000	0.001945	0.000277
22.600000	0.001626	-0.000354
22.610000	0.001945	0.000593
22.620000	0.001945	-3.854300E-5
22.630000	0.002264	-3.854300E-5
22.640000	0.002264	0.000277
22.650000	0.002264	-0.000670
22.660000	0.001945	-3.854300E-5
22.670000	0.002264	-0.000670
22.680000	0.001945	0.000277
22.690000	0.001945	-0.000354
22.700000	0.002264	-3.854300E-5
22.710000	0.001626	-3.854300E-5
22.720000	0.001626	-0.000354
22.730000	0.001626	-0.000354
22.740000	0.001945	0.000593
22.750000	0.001945	-3.854300E-5
22.760000	0.002264	-0.000354
22.770000	0.002582	-3.854300E-5
22.780000	0.002264	-0.000354
22.790000	0.002264	-0.000354
22.800000	0.001626	-0.000354
22.810000	0.001626	-0.000354
22.820000	0.001626	-3.854300E-5
22.830000	0.001626	-0.000354
22.840000	0.001626	-0.000354
22.850000	0.001945	-0.000670
22.860000	0.002264	-3.854300E-5
22.870000	0.002582	0.000277
22.880000	0.002264	-0.000354
22.890000	0.001945	-3.854300E-5
22.900000	0.001945	-3.854300E-5
22.910000	0.002264	-3.854300E-5
22.920000	0.002264	0.000593
22.930000	0.001626	-0.000354
22.940000	0.002264	-0.000354
22.950000	0.001945	-0.000670
22.960000	0.001945	0.000277
22.970000	0.001945	-0.000354
22.980000	0.001626	-0.000354
22.990000	0.001626	-3.854300E-5
23.000000	0.002582	-3.854300E-5
23.010000	0.002582	-0.000354
23.020000	0.002582	-3.854300E-5
23.030000	0.001626	-0.000354
23.040000	0.001626	-3.854300E-5
23.050000	0.001945	-0.001302
23.060000	0.002901	-3.854300E-5
23.070000	0.001626	-0.000670
23.080000	0.001945	-3.854300E-5
23.090000	0.002264	-3.854300E-5
23.100000	0.001626	-3.854300E-5
23.110000	0.001945	-3.854300E-5
23.120000	0.001945	-0.000670
23.130000	0.001626	-3.854300E-5
23.140000	0.001626	-0.000354
23.150000	0.001626	-3.854300E-5
23.160000	0.001945	-3.854300E-5
23.170000	0.001626	-0.000354
23.180000	0.001308	-0.000354
23.190000	0.001945	-0.000670
23.200000	0.001945	-0.000670
23.210000	0.001945	-0.000354
23.220000	0.001945	-0.000354
23.230000	0.001626	-3.854300E-5
23.240000	0.001626	-0.000354
23.250000	0.001308	-0.000670
23.260000	0.001308	-3.854300E-5
23.270000	0.001626	-0.000354
23.280000	0.001308	-0.000354
23.290000	0.001626	-0.000354
23.300000	0.001626	-0.000354
23.310000	0.001945	-0.000670
23.320000	0.001626	-0.000354
23.330000	0.001945	-0.000354
23.340000	0.001626	-3.854300E-5
23.350000	0.001626	-0.000354
23.360000	0.002264	-3.854300E-5
23.370000	0.002582	-0.000354
23.380000	0.002264	-0.000354
23.390000	0.002582	-3.854300E-5
23.400000	0.001945	-0.000354
23.410000	0.001626	0.000277
23.420000	0.001626	-0.000354
23.430000	0.001945	-0.000670
23.440000	0.001626	-0.000670
23.450000	0.002264	-0.000354
23.460000	0.001945	-0.000354
23.470000	0.001626	-0.000354
23.480000	0.001626	-0.000670
23.490000	0.001626	-0.000354
23.500000	0.001945	-0.000354
23.510000	0.002264	-3.854300E-5
23.520000	0.002901	-3.854300E-5
23.530000	0.001626	-0.000354
23.540000	0.001945	-3.854300E-5
23.550000	0.002264	-0.000354
23.560000	0.002582	-3.854300E-5
23.570000	0.002264	-3.854300E-5
23.580000	0.001626	-3.854300E-5
23.590000	0.002264	-0.000986
23.600000	0.002264	-3.854300E-5
23.610000	0.001626	-0.000354
23.620000	0.001945	0.000593
23.630000	0.002264	-0.000354
23.640000	0.001945	-0.000354
23.650000	0.001945	-0.000354
23.660000	0.002582	-0.000354
23.670000	0.002264	-3.854300E-5
23.680000	0.002582	-3.854300E-5
23.690000	0.002582	-3.854300E-5
23.700000	0.001945	-0.000354
23.710000	0.002582	0.000593
23.720000	0.002264	-3.854300E-5
23.730000	0.002582	-0.000354
23.740000	0.002582	-0.000670
23.750000	0.001945	-0.000354
23.760000	0.002264	-0.000354
23.770000	0.001945	-0.000354
23.780000	0.001626	-0.000354
23.790000	0.002264	-3.854300E-5
23.800000	0.001945	-0.000354
23.810000	0.001945	-0.000354
23.820000	0.001945	-0.000354
23.830000	0.002264	-0.000354
23.840000	0.002264	-0.000354
23.850000	0.001945	-3.854300E-5
23.860000	0.002264	-0.000354
23.870000	0.002264	-3.854300E-5
23.880000	0.001626	-0.000354
23.890000	0.002582	-3.854300E-5
23.900000	0.002264	0.000277
23.910000	0.001945	-0.000354
23.920000	0.001626	-0.000354
23.930000	0.001945	-0.000354
23.940000	0.002582	-3.854300E-5
23.950000	0.001626	-0.000670
23.960000	0.001945	0.000277
23.970000	0.001945	-0.000354
23.980000	0.001945	-3.854300E-5
23.990000	0.002264	-3.854300E-5

