LabVIEW Measurement	
Writer_Version	2
Reader_Version	2
Separator	Tab
Decimal_Separator	.
Multi_Headings	Yes
X_Columns	One
Time_Pref	Absolute
Operator	rsh2268
Date	2024/10/15
Time	17:03:03.3588028999998193713
***End_of_Header***	
	
Channels	3			
Samples	1700	1700	1700	
Date	2024/10/15	2024/10/15	2024/10/15	
Time	17:03:03.3588028999998193713	17:03:03.3588028999998193713	17:03:03.3588028999998193713	
Y_Unit_Label	Volts	Volts	Volts	
X_Dimension	Time	Time	Time	
X0	0.0000000000000000E+0	0.0000000000000000E+0	0.0000000000000000E+0	
Delta_X	0.010000	0.010000	0.010000	
***End_of_Header***				
X_Value	cDAQ2Mod1/ai0	cDAQ2Mod1/ai1	cDAQ2Mod1/ai2	Comment
0.000000	0.003538	-0.000670	-0.000609
0.010000	0.002901	0.000277	-0.000928
0.020000	0.002582	-0.000670	-0.000928
0.030000	0.002582	0.000277	2.840100E-5
0.040000	0.001945	-0.000354	-0.000609
0.050000	0.002901	-3.854300E-5	-0.000609
0.060000	0.001945	0.000277	-0.000928
0.070000	0.002582	-3.854300E-5	-0.000290
0.080000	0.002582	0.000277	-0.000609
0.090000	0.002582	0.000277	-0.000290
0.100000	0.002264	-3.854300E-5	-0.000609
0.110000	0.002264	-0.000354	-0.000928
0.120000	0.002582	-0.000670	-0.000928
0.130000	0.002264	0.000277	-0.000609
0.140000	0.002582	-0.000670	-0.000609
0.150000	0.003219	-0.000354	0.000347
0.160000	0.002264	-0.000354	-0.000928
0.170000	0.002582	0.000277	-0.000290
0.180000	0.002582	0.000277	2.840100E-5
0.190000	0.002264	-0.000354	-0.000928
0.200000	0.002264	0.000277	-0.000290
0.210000	0.002901	-3.854300E-5	-0.000928
0.220000	0.002582	0.000277	-0.000290
0.230000	0.002582	0.000593	-0.000290
0.240000	0.002582	-3.854300E-5	-0.000609
0.250000	0.002901	0.000909	-0.000609
0.260000	0.002264	-0.000354	-0.000928
0.270000	0.002582	-3.854300E-5	-0.000609
0.280000	0.002582	-3.854300E-5	-0.000290
0.290000	0.002264	-0.000354	-0.000609
0.300000	0.002582	-3.854300E-5	-0.000609
0.310000	0.002264	-3.854300E-5	-0.000609
0.320000	0.002901	0.000277	-0.000290
0.330000	0.002582	-0.000670	-0.000928
0.340000	0.001945	0.000909	2.840100E-5
0.350000	0.002582	-3.854300E-5	-0.000928
0.360000	0.002264	-0.000354	-0.000609
0.370000	0.002582	-0.000354	-0.000609
0.380000	0.001945	-0.000354	-0.000609
0.390000	0.002582	-0.000354	-0.001566
0.400000	0.002582	-3.854300E-5	-0.000290
0.410000	0.002264	-3.854300E-5	-0.000928
0.420000	0.001626	-3.854300E-5	-0.000609
0.430000	0.002264	-0.000354	-0.000928
0.440000	0.002582	-3.854300E-5	-0.000928
0.450000	0.002264	-0.000354	-0.000290
0.460000	0.002264	-0.000354	-0.000290
0.470000	0.002582	-0.000354	-0.000609
0.480000	0.002901	0.000593	-0.000609
0.490000	0.002264	-0.000354	-0.000290
0.500000	0.002582	0.000909	-0.000290
0.510000	0.001626	-3.854300E-5	-0.000928
0.520000	0.002582	0.000277	-0.000609
0.530000	0.002582	0.000277	0.000347
0.540000	0.001945	-0.000354	-0.000609
0.550000	0.002582	0.000593	-0.000290
0.560000	0.002582	-3.854300E-5	-0.000928
0.570000	0.002264	-3.854300E-5	-0.000290
0.580000	0.001945	-3.854300E-5	-0.000928
0.590000	0.001945	0.000593	-0.000609
0.600000	0.002582	-0.000354	-0.000290
0.610000	0.002582	-0.000670	-0.001247
0.620000	0.002582	-3.854300E-5	2.840100E-5
0.630000	0.002901	0.000277	-0.000609
0.640000	0.002901	-3.854300E-5	-0.000928
0.650000	0.002582	0.000277	-0.000928
0.660000	0.002582	-3.854300E-5	-0.000928
0.670000	0.002264	-3.854300E-5	-0.000928
0.680000	0.003219	-3.854300E-5	-0.000290
0.690000	0.002264	-0.000354	-0.000928
0.700000	0.001945	0.000277	-0.000928
0.710000	0.002582	-3.854300E-5	-0.000928
0.720000	0.002582	-0.000670	-0.001247
0.730000	0.003219	-3.854300E-5	-0.000609
0.740000	0.002264	-3.854300E-5	-0.000609
0.750000	0.001945	0.000593	-0.000609
0.760000	0.002582	-3.854300E-5	-0.000928
0.770000	0.002264	-0.000354	-0.000609
0.780000	0.002264	-0.000354	-0.000290
0.790000	0.002264	-0.000354	-0.000609
0.800000	0.002901	-0.000354	-0.000609
0.810000	0.002264	0.000277	-0.000290
0.820000	0.002582	-3.854300E-5	2.840100E-5
0.830000	0.001945	0.000277	-0.000290
0.840000	0.002582	-0.000354	-0.000609
0.850000	0.002582	-0.000354	-0.000609
0.860000	0.002582	-3.854300E-5	-0.000928
0.870000	0.002582	-3.854300E-5	-0.000928
0.880000	0.001945	-0.000354	-0.000928
0.890000	0.002582	-3.854300E-5	-0.000928
0.900000	0.002901	0.000277	-0.000290
0.910000	0.002582	-3.854300E-5	-0.001247
0.920000	0.002582	0.000909	-0.000290
0.930000	0.002264	0.000277	-0.000609
0.940000	0.002582	-3.854300E-5	-0.000290
0.950000	0.003219	-0.000354	-0.000290
0.960000	0.002582	0.000277	-0.000290
0.970000	0.002582	0.000277	-0.000290
0.980000	0.003219	-3.854300E-5	-0.000290
0.990000	0.002582	0.000593	-0.000928
1.000000	0.002582	-3.854300E-5	-0.000928
1.010000	0.001945	-0.000354	-0.001566
1.020000	0.002582	0.000909	-0.000290
1.030000	0.002901	-0.000354	-0.000290
1.040000	0.002264	-3.854300E-5	-0.000609
1.050000	0.002264	-3.854300E-5	-0.000609
1.060000	0.002582	-0.000354	-0.000928
1.070000	0.002264	-0.000354	-0.000609
1.080000	0.002582	-3.854300E-5	-0.000609
1.090000	0.002264	-0.000354	-0.000928
1.100000	0.002582	-3.854300E-5	-0.000609
1.110000	0.002264	-3.854300E-5	-0.000290
1.120000	0.002264	-0.000354	-0.000609
1.130000	0.002901	-0.000354	-0.000609
1.140000	0.003219	-3.854300E-5	2.840100E-5
1.150000	0.003538	0.000593	2.840100E-5
1.160000	0.002264	-3.854300E-5	-0.000609
1.170000	0.002582	-0.000670	-0.000609
1.180000	0.003219	0.000593	-0.000290
1.190000	0.002582	-0.000354	-0.000609
1.200000	0.002582	-0.000354	-0.000290
1.210000	0.002264	-0.000354	-0.000928
1.220000	0.002582	-0.000354	-0.000928
1.230000	0.001945	-0.000354	-0.000928
1.240000	0.001945	-3.854300E-5	-0.000928
1.250000	0.002901	0.000277	-0.000609
1.260000	0.002582	-3.854300E-5	-0.000928
1.270000	0.002582	0.000277	-0.000290
1.280000	0.001945	0.000593	-0.000609
1.290000	0.002582	-0.000354	-0.000609
1.300000	0.002901	-3.854300E-5	2.840100E-5
1.310000	0.001945	-3.854300E-5	-0.000928
1.320000	0.002901	-3.854300E-5	-0.000609
1.330000	0.002264	-0.000354	-0.000609
1.340000	0.002264	-3.854300E-5	-0.000609
1.350000	0.002582	-0.000354	-0.000290
1.360000	0.001945	-3.854300E-5	-0.000928
1.370000	0.002582	-0.000354	-0.000609
1.380000	0.002901	-3.854300E-5	-0.000928
1.390000	0.002582	-3.854300E-5	-0.000928
1.400000	0.002582	0.000593	-0.000290
1.410000	0.002901	0.000277	-0.000609
1.420000	0.002901	-0.000354	-0.000290
1.430000	0.003219	-3.854300E-5	-0.000609
1.440000	0.003219	0.000277	-0.000290
1.450000	0.002582	0.000593	-0.000290
1.460000	0.002582	-0.000670	-0.000928
1.470000	0.003219	0.000277	2.840100E-5
1.480000	0.002264	0.000277	-0.000290
1.490000	0.002901	0.000277	-0.000609
1.500000	0.002901	-3.854300E-5	-0.000609
1.510000	0.002901	-0.000354	-0.000609
1.520000	0.003219	0.000593	-0.000290
1.530000	0.002901	-0.000354	-0.000609
1.540000	0.002264	-3.854300E-5	-0.000928
1.550000	0.003219	-3.854300E-5	-0.000290
1.560000	0.002901	-0.000354	-0.000609
1.570000	0.002901	0.000277	-0.000290
1.580000	0.003538	0.000593	0.000347
1.590000	0.002901	0.000277	-0.000609
1.600000	0.002582	0.000277	2.840100E-5
1.610000	0.002901	0.000277	-0.000609
1.620000	0.002582	0.000277	-0.000290
1.630000	0.002901	0.000277	-0.000290
1.640000	0.002582	-0.000354	-0.000609
1.650000	0.002901	0.000593	2.840100E-5
1.660000	0.002582	0.000277	-0.000928
1.670000	0.003219	0.000593	0.000347
1.680000	0.002582	-3.854300E-5	-0.000928
1.690000	0.002264	-3.854300E-5	-0.000609
1.700000	0.002582	0.000277	-0.000290
1.710000	0.002264	-0.000354	-0.001247
1.720000	0.002901	0.000277	2.840100E-5
1.730000	0.002582	-3.854300E-5	-0.000928
1.740000	0.002264	-0.000354	-0.000609
1.750000	0.002582	0.000277	-0.000290
1.760000	0.002582	0.000593	2.840100E-5
1.770000	0.002901	0.000593	-0.000290
1.780000	0.002901	0.000593	2.840100E-5
1.790000	0.002582	-0.000354	-0.000290
1.800000	0.002901	0.000593	-0.001566
1.810000	0.002901	-3.854300E-5	2.840100E-5
1.820000	0.002582	-3.854300E-5	-0.000928
1.830000	0.002264	-0.000354	-0.000290
1.840000	0.002582	0.000593	-0.000290
1.850000	0.002901	-3.854300E-5	-0.000609
1.860000	0.002264	-3.854300E-5	-0.000609
1.870000	0.002582	0.000277	2.840100E-5
1.880000	0.002901	-0.000354	-0.000609
1.890000	0.002582	-0.000354	-0.000928
1.900000	0.002264	0.000277	-0.000928
1.910000	0.002901	-3.854300E-5	-0.000290
1.920000	0.003219	0.000593	-0.000928
1.930000	0.002582	0.000909	2.840100E-5
1.940000	0.003219	-3.854300E-5	-0.000609
1.950000	0.002264	0.000277	-0.000290
1.960000	0.002582	-0.000354	-0.000609
1.970000	0.002582	0.000593	2.840100E-5
1.980000	0.002582	-3.854300E-5	-0.000609
1.990000	0.002582	0.000277	-0.000609
2.000000	0.002582	0.000593	2.840100E-5
2.010000	0.001945	-0.000354	-0.001566
2.020000	0.002901	0.000277	-0.000290
2.030000	0.002901	0.001225	0.000347
2.040000	0.002582	-3.854300E-5	-0.000928
2.050000	0.002901	0.000593	-0.000290
2.060000	0.003219	0.000277	-0.000290
2.070000	0.002901	-3.854300E-5	-0.000609
2.080000	0.001945	-3.854300E-5	-0.001247
2.090000	0.002901	0.000277	2.840100E-5
2.100000	0.002582	-3.854300E-5	-0.000609
2.110000	0.002582	-0.000354	-0.000928
2.120000	0.002901	0.000909	-0.000609
2.130000	0.002582	-0.000670	-0.001247
2.140000	0.001945	-0.000354	-0.000609
2.150000	0.002582	-3.854300E-5	-0.000290
2.160000	0.002901	0.000593	2.840100E-5
2.170000	0.001945	-0.000986	-0.001566
2.180000	0.002582	-3.854300E-5	-0.000928
2.190000	0.002582	-3.854300E-5	-0.000928
2.200000	0.002582	-3.854300E-5	-0.000609
2.210000	0.001945	0.000277	-0.000609
2.220000	0.002582	-0.000354	-0.000609
2.230000	0.002901	0.000277	2.840100E-5
2.240000	0.002264	-3.854300E-5	-0.000928
2.250000	0.002582	-0.000354	-0.000290
2.260000	0.002264	-3.854300E-5	-0.000609
2.270000	0.002901	-3.854300E-5	-0.000609
2.280000	0.002582	-0.000354	-0.000928
2.290000	0.002264	-0.000354	-0.000928
2.300000	0.002582	0.000593	2.840100E-5
2.310000	0.002264	-0.000354	-0.000609
2.320000	0.001945	-0.000354	-0.000609
2.330000	0.002264	-0.000354	2.840100E-5
2.340000	0.002264	-3.854300E-5	2.840100E-5
2.350000	0.001945	-0.000670	-0.000928
2.360000	0.002582	-3.854300E-5	-0.000928
2.370000	0.002901	0.000593	-0.000609
2.380000	0.002901	-3.854300E-5	-0.000928
2.390000	0.002264	0.000277	-0.000290
2.400000	0.002264	0.000277	2.840100E-5
2.410000	0.002901	-0.000354	-0.000609
2.420000	0.002582	0.000277	-0.000290
2.430000	0.002582	-3.854300E-5	-0.000290
2.440000	0.002582	-0.000354	-0.001247
2.450000	0.002264	-0.000354	-0.000290
2.460000	0.002901	-3.854300E-5	-0.000928
2.470000	0.002264	-0.000354	-0.000928
2.480000	0.001945	0.000593	-0.000290
2.490000	0.002264	0.000277	-0.000290
2.500000	0.002582	-3.854300E-5	-0.000290
2.510000	0.002901	-3.854300E-5	-0.000290
2.520000	0.002901	0.000593	2.840100E-5
2.530000	0.003219	-3.854300E-5	-0.000290
2.540000	0.003219	0.000593	-0.000290
2.550000	0.002901	-0.000354	-0.000290
2.560000	0.002582	-0.000354	-0.001247
2.570000	0.002582	-3.854300E-5	-0.000928
2.580000	0.002582	0.000909	-0.000290
2.590000	0.002264	-0.000354	-0.000609
2.600000	0.002264	-3.854300E-5	-0.000928
2.610000	0.002582	0.000277	-0.000609
2.620000	0.002582	-3.854300E-5	-0.000928
2.630000	0.001945	-0.000354	-0.001247
2.640000	0.002264	0.000593	-0.000609
2.650000	0.002582	-0.000354	-0.000290
2.660000	0.002264	-3.854300E-5	-0.000928
2.670000	0.002582	-0.000354	-0.001247
2.680000	0.002901	0.000593	-0.000290
2.690000	0.002582	-3.854300E-5	-0.000290
2.700000	0.002582	0.000277	-0.000609
2.710000	0.002901	-3.854300E-5	-0.000290
2.720000	0.002264	-3.854300E-5	-0.000609
2.730000	0.001945	-0.000354	-0.000928
2.740000	0.002582	-0.000354	-0.000609
2.750000	0.002582	-0.000354	-0.000609
2.760000	0.001945	-0.000354	-0.000928
2.770000	0.002582	-0.000354	2.840100E-5
2.780000	0.002264	-3.854300E-5	-0.000928
2.790000	0.002582	-3.854300E-5	-0.000609
2.800000	0.002582	-0.000354	-0.000609
2.810000	0.002582	-0.000354	-0.000609
2.820000	0.003219	0.000277	-0.000609
2.830000	0.002582	-3.854300E-5	-0.000609
2.840000	0.002582	-3.854300E-5	-0.000609
2.850000	0.002901	0.000277	2.840100E-5
2.860000	0.002901	-3.854300E-5	-0.000290
2.870000	0.002901	-3.854300E-5	2.840100E-5
2.880000	0.002582	0.000593	-0.000609
2.890000	0.002901	0.000593	-0.000290
2.900000	0.002582	-3.854300E-5	-0.000290
2.910000	0.001945	-0.000354	-0.000609
2.920000	0.002582	-0.000354	-0.000609
2.930000	0.002901	0.000909	-0.000290
2.940000	0.002582	-0.000354	-0.000290
2.950000	0.002582	-0.000354	-0.000290
2.960000	0.002582	-3.854300E-5	-0.000928
2.970000	0.002582	-3.854300E-5	-0.000609
2.980000	0.002582	-0.000354	-0.000609
2.990000	0.002264	-3.854300E-5	-0.000609
3.000000	0.002582	0.000277	-0.000609
3.010000	0.002264	-0.000354	-0.001566
3.020000	0.002901	-3.854300E-5	-0.000609
3.030000	0.002264	-3.854300E-5	2.840100E-5
3.040000	0.002901	-0.000354	-0.000928
3.050000	0.002582	0.000277	-0.000290
3.060000	0.002582	-0.000354	-0.000928
3.070000	0.002582	-3.854300E-5	-0.000609
3.080000	0.001945	-3.854300E-5	-0.000290
3.090000	0.002901	0.000593	-0.000609
3.100000	0.002582	-3.854300E-5	-0.000609
3.110000	0.002901	-3.854300E-5	-0.000609
3.120000	0.002901	0.000277	-0.000290
3.130000	0.002901	-0.000354	-0.000609
3.140000	0.002582	-3.854300E-5	-0.000928
3.150000	0.002264	-3.854300E-5	-0.000290
3.160000	0.002582	-0.000354	-0.000609
3.170000	0.003219	-3.854300E-5	-0.000290
3.180000	0.002264	-3.854300E-5	-0.000609
3.190000	0.002582	-3.854300E-5	2.840100E-5
3.200000	0.002264	-0.000354	-0.000609
3.210000	0.002901	-3.854300E-5	-0.000290
3.220000	0.002582	0.000593	-0.000609
3.230000	0.001945	0.000277	2.840100E-5
3.240000	0.002582	0.000277	-0.000290
3.250000	0.002901	-3.854300E-5	-0.000928
3.260000	0.002582	-3.854300E-5	-0.000928
3.270000	0.002582	-0.000354	-0.000928
3.280000	0.002582	0.000277	-0.000928
3.290000	0.002901	0.000277	-0.000609
3.300000	0.001945	0.000277	-0.000609
3.310000	0.002582	-3.854300E-5	-0.000609
3.320000	0.002582	-3.854300E-5	-0.000609
3.330000	0.002582	-0.000354	-0.000928
3.340000	0.003219	-3.854300E-5	-0.000290
3.350000	0.002582	0.000593	-0.000290
3.360000	0.001626	-0.000670	-0.000609
3.370000	0.003538	0.000277	0.000347
3.380000	0.002901	-3.854300E-5	2.840100E-5
3.390000	0.002901	0.000593	-0.000290
3.400000	0.002901	0.000277	-0.000609
3.410000	0.002582	-3.854300E-5	2.840100E-5
3.420000	0.002582	0.000277	-0.000609
3.430000	0.002582	-3.854300E-5	2.840100E-5
3.440000	0.002582	-3.854300E-5	-0.000609
3.450000	0.002582	0.000277	-0.000290
3.460000	0.002264	-0.000354	-0.001566
3.470000	0.002582	-3.854300E-5	-0.000290
3.480000	0.002901	0.000277	-0.000290
3.490000	0.002582	-3.854300E-5	-0.000609
3.500000	0.002901	0.000277	2.840100E-5
3.510000	0.002582	-3.854300E-5	-0.000290
3.520000	0.002582	-0.000354	-0.000609
3.530000	0.002582	0.000277	2.840100E-5
3.540000	0.002582	0.000277	-0.000290
3.550000	0.002264	-0.000354	-0.000928
3.560000	0.002901	-3.854300E-5	-0.000609
3.570000	0.002582	0.000277	-0.000609
3.580000	0.002582	-0.000670	-0.001247
3.590000	0.002582	0.000277	-0.000928
3.600000	0.003538	0.000277	-0.000609
3.610000	0.002901	-3.854300E-5	-0.000609
3.620000	0.003219	0.000593	2.840100E-5
3.630000	0.002582	-0.000354	-0.000609
3.640000	0.002901	-3.854300E-5	-0.000290
3.650000	0.003219	-3.854300E-5	-0.000609
3.660000	0.002901	0.000277	-0.000290
3.670000	0.002582	-3.854300E-5	-0.000290
3.680000	0.002582	0.000593	-0.000609
3.690000	0.002582	0.000277	-0.000609
3.700000	0.002264	0.000277	-0.000290
3.710000	0.002582	0.000909	-0.001247
3.720000	0.002264	0.000593	-0.000290
3.730000	0.002264	-0.000354	-0.000928
3.740000	0.001945	-0.000354	-0.000290
3.750000	0.002582	0.000593	-0.000290
3.760000	0.002264	-0.000354	-0.000609
3.770000	0.002264	0.000277	-0.000928
3.780000	0.002582	-3.854300E-5	-0.000609
3.790000	0.002901	0.000277	-0.000290
3.800000	0.001945	-3.854300E-5	2.840100E-5
3.810000	0.002582	0.000277	-0.000609
3.820000	0.002264	-3.854300E-5	2.840100E-5
3.830000	0.002901	-3.854300E-5	2.840100E-5
3.840000	0.001945	0.000593	-0.000290
3.850000	0.002901	0.000277	-0.000609
3.860000	0.002264	-3.854300E-5	-0.000609
3.870000	0.002901	-3.854300E-5	0.000347
3.880000	0.002582	-0.000354	-0.000928
3.890000	0.002582	-0.000354	-0.000609
3.900000	0.001945	0.000593	-0.000290
3.910000	0.002264	-0.000354	-0.000609
3.920000	0.003538	-3.854300E-5	-0.000609
3.930000	0.002901	0.000593	0.000666
3.940000	0.002582	0.000593	2.840100E-5
3.950000	0.003219	0.000593	-0.000609
3.960000	0.002582	0.000593	-0.000290
3.970000	0.003219	0.000277	-0.000290
3.980000	0.002582	-3.854300E-5	-0.000928
3.990000	0.002582	0.000593	-0.000609
4.000000	0.003219	-3.854300E-5	2.840100E-5
4.010000	0.002582	-3.854300E-5	-0.001247
4.020000	0.002582	0.000593	-0.000290
4.030000	0.002582	0.000277	-0.000609
4.040000	0.002582	-0.000354	-0.000290
4.050000	0.002264	-3.854300E-5	-0.000290
4.060000	0.001945	0.000593	-0.000609
4.070000	0.002582	0.000277	2.840100E-5
4.080000	0.002582	-3.854300E-5	-0.000290
4.090000	0.002901	0.000909	-0.000609
4.100000	0.002582	0.000593	2.840100E-5
4.110000	0.002582	-3.854300E-5	-0.000928
4.120000	0.002582	0.000909	0.000347
4.130000	0.002264	-3.854300E-5	-0.000290
4.140000	0.001945	-0.000354	-0.000609
4.150000	0.002264	0.000277	-0.000290
4.160000	0.002582	-3.854300E-5	-0.000609
4.170000	0.002901	0.000277	-0.000609
4.180000	0.002901	-3.854300E-5	-0.000290
4.190000	0.002582	0.000277	0.000666
4.200000	0.002901	0.000909	-0.000609
4.210000	0.002582	0.000277	-0.000609
4.220000	0.003219	0.000593	0.000666
4.230000	0.002582	-0.000354	-0.000609
4.240000	0.002582	0.000277	-0.000290
4.250000	0.002582	0.000593	-0.000290
4.260000	0.002264	0.000277	-0.000290
4.270000	0.003219	0.000277	-0.000609
4.280000	0.002901	0.000277	2.840100E-5
4.290000	0.003219	-0.000354	-0.000290
4.300000	0.002582	0.000277	-0.000290
4.310000	0.003219	0.000593	-0.000609
4.320000	0.002901	0.000593	0.000666
4.330000	0.002264	-3.854300E-5	2.840100E-5
4.340000	0.003857	0.000277	2.840100E-5
4.350000	0.002901	-3.854300E-5	2.840100E-5
4.360000	0.002264	-0.000670	-0.001566
4.370000	0.003538	-3.854300E-5	2.840100E-5
4.380000	0.003538	0.000593	-0.000928
4.390000	0.003538	-3.854300E-5	-0.000928
4.400000	0.004813	0.000277	-0.000609
4.410000	0.004494	-0.000670	-0.001247
4.420000	0.005131	-3.854300E-5	-0.000609
4.430000	0.005131	0.000593	-0.000928
4.440000	0.003857	-3.854300E-5	-0.001247
4.450000	0.004813	-0.000354	-0.001566
4.460000	0.006406	-3.854300E-5	-0.001566
4.470000	0.007680	-0.000354	-0.001566
4.480000	0.007999	-0.001302	-0.001884
4.490000	0.009592	-0.000354	-0.001884
4.500000	0.008318	-0.000986	-0.001566
4.510000	0.010548	-0.000670	-0.001884
4.520000	0.007680	-0.000670	-0.002522
4.530000	0.009592	-0.001302	-0.001566
4.540000	0.008636	-0.001934	-0.002522
4.550000	0.014372	-0.000670	-0.001566
4.560000	0.014053	-0.000986	-0.002203
4.570000	0.016602	-0.001302	-0.002203
4.580000	0.015647	-0.001618	-0.002841
4.590000	0.018833	-0.001302	-0.002203
4.600000	0.019789	-0.001934	-0.002841
4.610000	0.022019	-0.001618	-0.004116
4.620000	0.024887	-0.001618	-0.003797
4.630000	0.022338	-0.002881	-0.003797
4.640000	0.024250	-0.002881	-0.004116
4.650000	0.025206	-0.003829	-0.004435
4.660000	0.031579	-0.002881	-0.003797
4.670000	0.031579	-0.003513	-0.005391
4.680000	0.029667	-0.003829	-0.005391
4.690000	0.033491	-0.005093	-0.006667
4.700000	0.036677	-0.005093	-0.007623
4.710000	0.037314	-0.005093	-0.008898
4.720000	0.040819	-0.006356	-0.010811
4.730000	0.042094	-0.007936	-0.012405
4.740000	0.043368	-0.008251	-0.013043
4.750000	0.044962	-0.009515	-0.013999
4.760000	0.044006	-0.011094	-0.016231
4.770000	0.047192	-0.010463	-0.016550
4.780000	0.047830	-0.013306	-0.019100
4.790000	0.058026	-0.013306	-0.020694
4.800000	0.059938	-0.013937	-0.022607
4.810000	0.059938	-0.014885	-0.024520
4.820000	0.065036	-0.015833	-0.025795
4.830000	0.061213	-0.016148	-0.027389
4.840000	0.063124	-0.017096	-0.028346
4.850000	0.060894	-0.018360	-0.029940
4.860000	0.064399	-0.018991	-0.032171
4.870000	0.071728	-0.020255	-0.034084
4.880000	0.066948	-0.021203	-0.035678
4.890000	0.070135	-0.023414	-0.038229
4.900000	0.073958	-0.023098	-0.038229
4.910000	0.075870	-0.025309	-0.040460
4.920000	0.082243	-0.025625	-0.041735
4.930000	0.078419	-0.026257	-0.042692
4.940000	0.079057	-0.027836	-0.045561
4.950000	0.084473	-0.029100	-0.046199
4.960000	0.086704	-0.030995	-0.047155
4.970000	0.088616	-0.031943	-0.047793
4.980000	0.087023	-0.034154	-0.049387
4.990000	0.089572	-0.034470	-0.050343
5.000000	0.094033	-0.036049	-0.049706
5.010000	0.093714	-0.037313	-0.051300
5.020000	0.093714	-0.036997	-0.051937
5.030000	0.091802	-0.036997	-0.052575
5.040000	0.096263	-0.038260	-0.053850
5.050000	0.101362	-0.039524	-0.053213
5.060000	0.099768	-0.040155	-0.056082
5.070000	0.102636	-0.042051	-0.059589
5.080000	0.107416	-0.044262	-0.062139
5.090000	0.106460	-0.045210	-0.063733
5.100000	0.101680	-0.046789	-0.065965
5.110000	0.107734	-0.048052	-0.066921
5.120000	0.111558	-0.049948	-0.067878
5.130000	0.107097	-0.050895	-0.069472
5.140000	0.111877	-0.052159	-0.070109
5.150000	0.106141	-0.052475	-0.071066
5.160000	0.120480	-0.055318	-0.071703
5.170000	0.112514	-0.055634	-0.072022
5.180000	0.113789	-0.056897	-0.072341
5.190000	0.114745	-0.057845	-0.072660
5.200000	0.115063	-0.059424	-0.072341
5.210000	0.114745	-0.059740	-0.072660
5.220000	0.118568	-0.060688	-0.073297
5.230000	0.115700	-0.061635	-0.073297
5.240000	0.117612	-0.062583	-0.073616
5.250000	0.123029	-0.063531	-0.073297
5.260000	0.117612	-0.064162	-0.072979
5.270000	0.126216	-0.065110	-0.073297
5.280000	0.120161	-0.065742	-0.072979
5.290000	0.129402	-0.067321	-0.073935
5.300000	0.123667	-0.067321	-0.072979
5.310000	0.124304	-0.067953	-0.073616
5.320000	0.126534	-0.068269	-0.072660
5.330000	0.124304	-0.070164	-0.073297
5.340000	0.124941	-0.069532	-0.072660
5.350000	0.124304	-0.070480	-0.073297
5.360000	0.133226	-0.071112	-0.072979
5.370000	0.124304	-0.071112	-0.072341
5.380000	0.123029	-0.071744	-0.072660
5.390000	0.127490	-0.072059	-0.072979
5.400000	0.135138	-0.073323	-0.072660
5.410000	0.126853	-0.073007	-0.072341
5.420000	0.134500	-0.073323	-0.072341
5.430000	0.136412	-0.073955	-0.072660
5.440000	0.134182	-0.073955	-0.072341
5.450000	0.130677	-0.074586	-0.072022
5.460000	0.127490	-0.074271	-0.072022
5.470000	0.132907	-0.075218	-0.071385
5.480000	0.133544	-0.074902	-0.071385
5.490000	0.138961	-0.074586	-0.071385
5.500000	0.133226	-0.074586	-0.070428
5.510000	0.137687	-0.075850	-0.072022
5.520000	0.130995	-0.075850	-0.071703
5.530000	0.135138	-0.076166	-0.071385
5.540000	0.130677	-0.076166	-0.070747
5.550000	0.132907	-0.077114	-0.071703
5.560000	0.134182	-0.076482	-0.070747
5.570000	0.133863	-0.076798	-0.071385
5.580000	0.135456	-0.077114	-0.071385
5.590000	0.132270	-0.077114	-0.070747
5.600000	0.136094	-0.077114	-0.071385
5.610000	0.131314	-0.077745	-0.070428
5.620000	0.134819	-0.076798	-0.070747
5.630000	0.135775	-0.077745	-0.070747
5.640000	0.134182	-0.077429	-0.070747
5.650000	0.143422	-0.078061	-0.070747
5.660000	0.138643	-0.077745	-0.070747
5.670000	0.138324	-0.078377	-0.071066
5.680000	0.137050	-0.077429	-0.070747
5.690000	0.141511	-0.078377	-0.070747
5.700000	0.137050	-0.078061	-0.070428
5.710000	0.134500	-0.078693	-0.070747
5.720000	0.134500	-0.078693	-0.070428
5.730000	0.142148	-0.078377	-0.070428
5.740000	0.134500	-0.079009	-0.071066
5.750000	0.133226	-0.078377	-0.070747
5.760000	0.134500	-0.078693	-0.070747
5.770000	0.139599	-0.079009	-0.069791
5.780000	0.133226	-0.078061	-0.070428
5.790000	0.137687	-0.078377	-0.069791
5.800000	0.144060	-0.078693	-0.070428
5.810000	0.138961	-0.079009	-0.070747
5.820000	0.131633	-0.078377	-0.070109
5.830000	0.133863	-0.079009	-0.070428
5.840000	0.133544	-0.079325	-0.070428
5.850000	0.140555	-0.078693	-0.070428
5.860000	0.136731	-0.078693	-0.070109
5.870000	0.135775	-0.079641	-0.070428
5.880000	0.135456	-0.079641	-0.070109
5.890000	0.135456	-0.079641	-0.070428
5.900000	0.134819	-0.079641	-0.070747
5.910000	0.132270	-0.079641	-0.070428
5.920000	0.131951	-0.079325	-0.070109
5.930000	0.134500	-0.079009	-0.070428
5.940000	0.133544	-0.078693	-0.070428
5.950000	0.132270	-0.079325	-0.070109
5.960000	0.135138	-0.079325	-0.070428
5.970000	0.137050	-0.079641	-0.070747
5.980000	0.134819	-0.078693	-0.070428
5.990000	0.137687	-0.079641	-0.070747
6.000000	0.130995	-0.079641	-0.071066
6.010000	0.136412	-0.079956	-0.070747
6.020000	0.137050	-0.079641	-0.070747
6.030000	0.132907	-0.079009	-0.070747
6.040000	0.133544	-0.079325	-0.070428
6.050000	0.138005	-0.079641	-0.070428
6.060000	0.130677	-0.079009	-0.071385
6.070000	0.133226	-0.079009	-0.069791
6.080000	0.131633	-0.079641	-0.070747
6.090000	0.135138	-0.079641	-0.070428
6.100000	0.130677	-0.079956	-0.070747
6.110000	0.134819	-0.079641	-0.070747
6.120000	0.134819	-0.079641	-0.070747
6.130000	0.130677	-0.079325	-0.070109
6.140000	0.126534	-0.079956	-0.071385
6.150000	0.137368	-0.079641	-0.070428
6.160000	0.132589	-0.079641	-0.071066
6.170000	0.136412	-0.079641	-0.070428
6.180000	0.132270	-0.079956	-0.071066
6.190000	0.132907	-0.079641	-0.071066
6.200000	0.127809	-0.079641	-0.070428
6.210000	0.128765	-0.079956	-0.071066
6.220000	0.131314	-0.079956	-0.071066
6.230000	0.130358	-0.079641	-0.071066
6.240000	0.132589	-0.079641	-0.071066
6.250000	0.132907	-0.079641	-0.071066
6.260000	0.132589	-0.080272	-0.071385
6.270000	0.130995	-0.079641	-0.071385
6.280000	0.129402	-0.079956	-0.071066
6.290000	0.126534	-0.079641	-0.071703
6.300000	0.126853	-0.079956	-0.070747
6.310000	0.125578	-0.080588	-0.072022
6.320000	0.129721	-0.080272	-0.072022
6.330000	0.129721	-0.079956	-0.072022
6.340000	0.127490	-0.080588	-0.071385
6.350000	0.128446	-0.080272	-0.071066
6.360000	0.130039	-0.080272	-0.071385
6.370000	0.129402	-0.080904	-0.071703
6.380000	0.130995	-0.079956	-0.072022
6.390000	0.125260	-0.079641	-0.071066
6.400000	0.127172	-0.079956	-0.071385
6.410000	0.129402	-0.080588	-0.072341
6.420000	0.125578	-0.079956	-0.071703
6.430000	0.130358	-0.080904	-0.072022
6.440000	0.130358	-0.080588	-0.072022
6.450000	0.130039	-0.080272	-0.072022
6.460000	0.125578	-0.080588	-0.072341
6.470000	0.125578	-0.080272	-0.072022
6.480000	0.128446	-0.081220	-0.071703
6.490000	0.127172	-0.080588	-0.072022
6.500000	0.125897	-0.079641	-0.071385
6.510000	0.127490	-0.080904	-0.072341
6.520000	0.126534	-0.080272	-0.072022
6.530000	0.128765	-0.080272	-0.072022
6.540000	0.130039	-0.081220	-0.072022
6.550000	0.128128	-0.080904	-0.072660
6.560000	0.123029	-0.080904	-0.072022
6.570000	0.126216	-0.080272	-0.072022
6.580000	0.124941	-0.081220	-0.072660
6.590000	0.127490	-0.080588	-0.072022
6.600000	0.121117	-0.081220	-0.072022
6.610000	0.126534	-0.080904	-0.072979
6.620000	0.124941	-0.080272	-0.072341
6.630000	0.122711	-0.081220	-0.073616
6.640000	0.122392	-0.081220	-0.072660
6.650000	0.123029	-0.081220	-0.072660
6.660000	0.120799	-0.080904	-0.072979
6.670000	0.120161	-0.081220	-0.073616
6.680000	0.124304	-0.080588	-0.072660
6.690000	0.119206	-0.081220	-0.072979
6.700000	0.121117	-0.080588	-0.072979
6.710000	0.122073	-0.080588	-0.073297
6.720000	0.121117	-0.080588	-0.072660
6.730000	0.119843	-0.081536	-0.073935
6.740000	0.122073	-0.080904	-0.073616
6.750000	0.118250	-0.081220	-0.072660
6.760000	0.119206	-0.081536	-0.073297
6.770000	0.122392	-0.080904	-0.073297
6.780000	0.123348	-0.081536	-0.073297
6.790000	0.117931	-0.080904	-0.073297
6.800000	0.120480	-0.081220	-0.073616
6.810000	0.118250	-0.081220	-0.073616
6.820000	0.118568	-0.081536	-0.073297
6.830000	0.116656	-0.081220	-0.073935
6.840000	0.118887	-0.080904	-0.073935
6.850000	0.117931	-0.081220	-0.073616
6.860000	0.118887	-0.081536	-0.073935
6.870000	0.119843	-0.081220	-0.073297
6.880000	0.117294	-0.081220	-0.073297
6.890000	0.122392	-0.081220	-0.073616
6.900000	0.114745	-0.081220	-0.073616
6.910000	0.118568	-0.081220	-0.073616
6.920000	0.117294	-0.081220	-0.073616
6.930000	0.113789	-0.081220	-0.073935
6.940000	0.115700	-0.080904	-0.073616
6.950000	0.118887	-0.081220	-0.073297
6.960000	0.115700	-0.081536	-0.074573
6.970000	0.116338	-0.081220	-0.073616
6.980000	0.114745	-0.081536	-0.074254
6.990000	0.116656	-0.081220	-0.074573
7.000000	0.117612	-0.080904	-0.073297
7.010000	0.118887	-0.081852	-0.073935
7.020000	0.116975	-0.081536	-0.073616
7.030000	0.115700	-0.081536	-0.073935
7.040000	0.118250	-0.081536	-0.073935
7.050000	0.114745	-0.081220	-0.074254
7.060000	0.114426	-0.081852	-0.074891
7.070000	0.113789	-0.081536	-0.073297
7.080000	0.114107	-0.081852	-0.074254
7.090000	0.116975	-0.081536	-0.074573
7.100000	0.117294	-0.081852	-0.074254
7.110000	0.112514	-0.081852	-0.074254
7.120000	0.114107	-0.081852	-0.073935
7.130000	0.117931	-0.082168	-0.074573
7.140000	0.112833	-0.080588	-0.073297
7.150000	0.115063	-0.082168	-0.074254
7.160000	0.112514	-0.081852	-0.074891
7.170000	0.113151	-0.081536	-0.073935
7.180000	0.112195	-0.081852	-0.074573
7.190000	0.111877	-0.082168	-0.075210
7.200000	0.112833	-0.082168	-0.074573
7.210000	0.108053	-0.082483	-0.074573
7.220000	0.115700	-0.082168	-0.074573
7.230000	0.113470	-0.081852	-0.074891
7.240000	0.113151	-0.081852	-0.075210
7.250000	0.115063	-0.081852	-0.074573
7.260000	0.112195	-0.082168	-0.074891
7.270000	0.111239	-0.082168	-0.074891
7.280000	0.112514	-0.082168	-0.074891
7.290000	0.111877	-0.082483	-0.075529
7.300000	0.110284	-0.081220	-0.074891
7.310000	0.113151	-0.081852	-0.075210
7.320000	0.115382	-0.082799	-0.074891
7.330000	0.111239	-0.081536	-0.075210
7.340000	0.111239	-0.082168	-0.074891
7.350000	0.111239	-0.081852	-0.074573
7.360000	0.112833	-0.082168	-0.074891
7.370000	0.111239	-0.082483	-0.074891
7.380000	0.110284	-0.082168	-0.075210
7.390000	0.108372	-0.081852	-0.074573
7.400000	0.109965	-0.081852	-0.075210
7.410000	0.111877	-0.082168	-0.075848
7.420000	0.113789	-0.082168	-0.075848
7.430000	0.108372	-0.082483	-0.074573
7.440000	0.110602	-0.082168	-0.074891
7.450000	0.112195	-0.082168	-0.075210
7.460000	0.110284	-0.082483	-0.074891
7.470000	0.110284	-0.082483	-0.074891
7.480000	0.112514	-0.082168	-0.075848
7.490000	0.110921	-0.082168	-0.074891
7.500000	0.108053	-0.082483	-0.074891
7.510000	0.109965	-0.082799	-0.075529
7.520000	0.108690	-0.081852	-0.074891
7.530000	0.106141	-0.082483	-0.075210
7.540000	0.108372	-0.082799	-0.075529
7.550000	0.114107	-0.082799	-0.075210
7.560000	0.110284	-0.082799	-0.075210
7.570000	0.107416	-0.082799	-0.075210
7.580000	0.111558	-0.083431	-0.075529
7.590000	0.112514	-0.082799	-0.075529
7.600000	0.109009	-0.082483	-0.075210
7.610000	0.109009	-0.083115	-0.075848
7.620000	0.111877	-0.082168	-0.075210
7.630000	0.108372	-0.082168	-0.075210
7.640000	0.110602	-0.082799	-0.075529
7.650000	0.110602	-0.082168	-0.075529
7.660000	0.112833	-0.082799	-0.075210
7.670000	0.108690	-0.082483	-0.075529
7.680000	0.109009	-0.082483	-0.075210
7.690000	0.108372	-0.082799	-0.075529
7.700000	0.109965	-0.082799	-0.075529
7.710000	0.108690	-0.082483	-0.076167
7.720000	0.109328	-0.082168	-0.075529
7.730000	0.105185	-0.083115	-0.075529
7.740000	0.107416	-0.082799	-0.075848
7.750000	0.105823	-0.082483	-0.075210
7.760000	0.107734	-0.082799	-0.075848
7.770000	0.105185	-0.084063	-0.076167
7.780000	0.108690	-0.082168	-0.075529
7.790000	0.103592	-0.082483	-0.075210
7.800000	0.106778	-0.082799	-0.075210
7.810000	0.103273	-0.081852	-0.076167
7.820000	0.105823	-0.082168	-0.076167
7.830000	0.103592	-0.082799	-0.076167
7.840000	0.101999	-0.082168	-0.075848
7.850000	0.098812	-0.082799	-0.076167
7.860000	0.100724	-0.082483	-0.076804
7.870000	0.098812	-0.083115	-0.076804
7.880000	0.094989	-0.083115	-0.077123
7.890000	0.093714	-0.083115	-0.076486
7.900000	0.093714	-0.083747	-0.077123
7.910000	0.093077	-0.082483	-0.076486
7.920000	0.090209	-0.083115	-0.076486
7.930000	0.090846	-0.083115	-0.076804
7.940000	0.089890	-0.082799	-0.074891
7.950000	0.088297	-0.082799	-0.069472
7.960000	0.083518	-0.083431	-0.065008
7.970000	0.084792	-0.083115	-0.060226
7.980000	0.082243	-0.083115	-0.060545
7.990000	0.081924	-0.082799	-0.062458
8.000000	0.081287	-0.083115	-0.062777
8.010000	0.080650	-0.082483	-0.063414
8.020000	0.079694	-0.081852	-0.062458
8.030000	0.075870	-0.081536	-0.062458
8.040000	0.076189	-0.081220	-0.061502
8.050000	0.075233	-0.080588	-0.059270
8.060000	0.073640	-0.080588	-0.057038
8.070000	0.072684	-0.079009	-0.053213
8.080000	0.071728	-0.078377	-0.050981
8.090000	0.069179	-0.078061	-0.049068
8.100000	0.068860	-0.076166	-0.046836
8.110000	0.067267	-0.075850	-0.045242
8.120000	0.065355	-0.074586	-0.044286
8.130000	0.064399	-0.073639	-0.043011
8.140000	0.063443	-0.072059	-0.040141
8.150000	0.062168	-0.070796	-0.038547
8.160000	0.060257	-0.069532	-0.037272
8.170000	0.058026	-0.067953	-0.035997
8.180000	0.057707	-0.066374	-0.035040
8.190000	0.055796	-0.064478	-0.035359
8.200000	0.055477	-0.062899	-0.034084
8.210000	0.053565	-0.061319	-0.032809
8.220000	0.052609	-0.059740	-0.029940
8.230000	0.051016	-0.058477	-0.029302
8.240000	0.049741	-0.055634	-0.028346
8.250000	0.048785	-0.055002	-0.026751
8.260000	0.047830	-0.052791	-0.027070
8.270000	0.046236	-0.050580	-0.025795
8.280000	0.044962	-0.048684	-0.025795
8.290000	0.043687	-0.047421	-0.023245
8.300000	0.041775	-0.046473	-0.023245
8.310000	0.041457	-0.043946	-0.022288
8.320000	0.039545	-0.042367	-0.021969
8.330000	0.038589	-0.040471	-0.021013
8.340000	0.036996	-0.038892	-0.020375
8.350000	0.036677	-0.035733	-0.018144
8.360000	0.035721	-0.034154	-0.018144
8.370000	0.034446	-0.032574	-0.016550
8.380000	0.033491	-0.030047	-0.016231
8.390000	0.032535	-0.028468	-0.014637
8.400000	0.031260	-0.027520	-0.013362
8.410000	0.030304	-0.024993	-0.012086
8.420000	0.029030	-0.022782	-0.011130
8.430000	0.027118	-0.021518	-0.010173
8.440000	0.026799	-0.019623	-0.008898
8.450000	0.026162	-0.017728	-0.008579
8.460000	0.024887	-0.016780	-0.008898
8.470000	0.024250	-0.014253	-0.007304
8.480000	0.023294	-0.013306	-0.006985
8.490000	0.022019	-0.012042	-0.005391
8.500000	0.021063	-0.010463	-0.005391
8.510000	0.019789	-0.009199	-0.005710
8.520000	0.019470	-0.007936	-0.005073
8.530000	0.018514	-0.007620	-0.004754
8.540000	0.017558	-0.006356	-0.004435
8.550000	0.016602	-0.005409	-0.004754
8.560000	0.016284	-0.006040	-0.004754
8.570000	0.015965	-0.004461	-0.003478
8.580000	0.015009	-0.004145	-0.003797
8.590000	0.013735	-0.003513	-0.002841
8.600000	0.013416	-0.003829	-0.003160
8.610000	0.012460	-0.002881	-0.003160
8.620000	0.011504	-0.002566	-0.002841
8.630000	0.011186	-0.002881	-0.002841
8.640000	0.010230	-0.001934	-0.003160
8.650000	0.009274	-0.002250	-0.001884
8.660000	0.007999	-0.002566	-0.003478
8.670000	0.008318	-0.000670	-0.000609
8.680000	0.008318	-0.000986	-0.002522
8.690000	0.007680	-0.001618	-0.002841
8.700000	0.007043	-0.000986	-0.001884
8.710000	0.006087	-0.000986	-0.001566
8.720000	0.006087	-0.000986	-0.001884
8.730000	0.004813	-0.001302	-0.002203
8.740000	0.004813	-0.001618	-0.002203
8.750000	0.003538	-0.001618	-0.002203
8.760000	0.003538	-0.001618	-0.002522
8.770000	0.003219	-0.001302	-0.001566
8.780000	0.003219	-0.000670	-0.001566
8.790000	0.002582	-0.001302	-0.001884
8.800000	0.002264	-0.000670	-0.001247
8.810000	0.002264	-0.001302	-0.001884
8.820000	0.001945	-0.000670	-0.000928
8.830000	0.001945	-0.000670	-0.001566
8.840000	0.001945	-0.000354	-0.001247
8.850000	0.001945	-0.000670	-0.000928
8.860000	0.002264	-3.854300E-5	-0.001247
8.870000	0.002582	-0.000354	-0.000609
8.880000	0.002582	-0.000354	2.840100E-5
8.890000	0.002901	-3.854300E-5	-0.000290
8.900000	0.003538	0.000277	2.840100E-5
8.910000	0.002264	0.000909	-0.000290
8.920000	0.002582	0.000593	-0.000290
8.930000	0.001626	-0.000354	-0.001247
8.940000	0.003219	0.000593	-0.000928
8.950000	0.002901	0.000277	-0.000290
8.960000	0.002264	-0.000354	-0.001566
8.970000	0.002264	-0.000670	-0.000609
8.980000	0.002582	-0.000670	-0.000928
8.990000	0.002582	0.000277	-0.000290
9.000000	0.002901	-0.000670	-0.000928
9.010000	0.001945	-0.000354	-0.001566
9.020000	0.002582	-3.854300E-5	-0.000609
9.030000	0.002582	-0.000354	-0.000609
9.040000	0.002582	0.000593	-0.000290
9.050000	0.001945	0.000593	2.840100E-5
9.060000	0.002901	0.000277	-0.000928
9.070000	0.002901	0.000277	-0.000290
9.080000	0.002582	-3.854300E-5	-0.000928
9.090000	0.002901	-3.854300E-5	-0.000609
9.100000	0.002582	-0.000354	-0.000609
9.110000	0.002264	-3.854300E-5	-0.000609
9.120000	0.002582	-0.000354	-0.000928
9.130000	0.003219	-0.000354	-0.000928
9.140000	0.002582	-0.000354	-0.000609
9.150000	0.002264	0.000593	-0.000609
9.160000	0.002901	-0.000354	-0.000609
9.170000	0.002901	-3.854300E-5	-0.000928
9.180000	0.001945	-3.854300E-5	-0.000290
9.190000	0.001945	-0.000354	-0.000609
9.200000	0.002901	0.000277	-0.000609
9.210000	0.002901	-3.854300E-5	-0.000290
9.220000	0.002582	-3.854300E-5	-0.000290
9.230000	0.002582	-0.000354	-0.000928
9.240000	0.002901	-3.854300E-5	-0.000290
9.250000	0.002264	-3.854300E-5	-0.000928
9.260000	0.001945	-0.000354	-0.000609
9.270000	0.002582	-3.854300E-5	-0.000609
9.280000	0.001945	-3.854300E-5	-0.000609
9.290000	0.002264	-3.854300E-5	-0.000290
9.300000	0.002582	-3.854300E-5	-0.000609
9.310000	0.002582	-0.000354	-0.000609
9.320000	0.002582	0.000593	0.000347
9.330000	0.002582	-0.000354	-0.001247
9.340000	0.002901	-0.000354	-0.000609
9.350000	0.002582	-3.854300E-5	-0.000290
9.360000	0.002901	0.000277	-0.000609
9.370000	0.002582	-3.854300E-5	-0.000290
9.380000	0.002264	-3.854300E-5	-0.000928
9.390000	0.002901	0.000277	-0.000290
9.400000	0.001945	-3.854300E-5	-0.000928
9.410000	0.002582	-0.000354	-0.000928
9.420000	0.002582	0.000277	-0.000290
9.430000	0.002582	-0.000354	-0.000928
9.440000	0.002582	-3.854300E-5	-0.000928
9.450000	0.003219	-0.000354	-0.000609
9.460000	0.002264	-0.000354	-0.000928
9.470000	0.002582	-0.000354	-0.000290
9.480000	0.003219	-0.000670	-0.000928
9.490000	0.002901	-0.000354	-0.000290
9.500000	0.003219	0.000277	-0.000290
9.510000	0.002264	-0.000354	-0.000290
9.520000	0.002901	-3.854300E-5	-0.001247
9.530000	0.002582	-3.854300E-5	-0.000290
9.540000	0.002264	-0.000354	-0.000609
9.550000	0.002264	-3.854300E-5	-0.000928
9.560000	0.002582	-3.854300E-5	-0.000290
9.570000	0.002264	-0.000670	-0.000290
9.580000	0.002582	-0.000354	-0.000928
9.590000	0.002901	-3.854300E-5	-0.000609
9.600000	0.002582	-3.854300E-5	2.840100E-5
9.610000	0.002582	-0.000354	-0.000609
9.620000	0.002582	0.000277	-0.000290
9.630000	0.002582	-3.854300E-5	-0.001247
9.640000	0.003219	0.000277	-0.000290
9.650000	0.002582	-3.854300E-5	-0.000609
9.660000	0.002901	0.000277	-0.000290
9.670000	0.002901	0.000277	-0.000290
9.680000	0.002264	-0.000354	-0.000928
9.690000	0.002582	-3.854300E-5	-0.000609
9.700000	0.002582	0.000593	-0.000609
9.710000	0.002582	-3.854300E-5	-0.000928
9.720000	0.002582	0.000593	-0.000290
9.730000	0.002582	-3.854300E-5	-0.000928
9.740000	0.002582	-3.854300E-5	-0.000290
9.750000	0.002264	-0.000354	2.840100E-5
9.760000	0.002264	-0.000354	-0.000928
9.770000	0.002901	-0.000354	2.840100E-5
9.780000	0.002264	-3.854300E-5	-0.000290
9.790000	0.002582	0.000277	-0.000609
9.800000	0.003219	-0.000354	-0.000290
9.810000	0.002901	0.000277	-0.000290
9.820000	0.002264	-3.854300E-5	-0.000290
9.830000	0.002264	0.000593	-0.000609
9.840000	0.002901	0.000593	-0.000290
9.850000	0.002582	0.000277	-0.001247
9.860000	0.002582	-3.854300E-5	-0.000290
9.870000	0.002582	-3.854300E-5	-0.000290
9.880000	0.003219	-3.854300E-5	-0.000609
9.890000	0.002582	-3.854300E-5	-0.000928
9.900000	0.002264	-0.000354	-0.000928
9.910000	0.002264	-3.854300E-5	2.840100E-5
9.920000	0.002264	-0.000354	-0.000290
9.930000	0.002264	-3.854300E-5	-0.000609
9.940000	0.002582	-3.854300E-5	-0.000928
9.950000	0.002901	0.000277	-0.000290
9.960000	0.002264	-3.854300E-5	-0.000609
9.970000	0.001945	-3.854300E-5	-0.000290
9.980000	0.002582	0.000277	-0.000609
9.990000	0.002264	-3.854300E-5	2.840100E-5
10.000000	0.002264	0.000277	-0.000609
10.010000	0.002582	-3.854300E-5	-0.000928
10.020000	0.002901	0.000593	-0.000290
10.030000	0.002582	0.000277	-0.000928
10.040000	0.003219	0.000277	-0.000928
10.050000	0.002264	-3.854300E-5	-0.000609
10.060000	0.002582	-0.000354	-0.001566
10.070000	0.002901	0.000593	-0.000609
10.080000	0.002264	-3.854300E-5	-0.000609
10.090000	0.002264	0.000277	-0.000290
10.100000	0.002264	-3.854300E-5	-0.000609
10.110000	0.002901	0.000909	-0.000290
10.120000	0.002901	-0.000354	-0.000290
10.130000	0.003219	0.000593	-0.000290
10.140000	0.002582	-0.000354	-0.000290
10.150000	0.002582	0.000277	2.840100E-5
10.160000	0.002264	-3.854300E-5	-0.000609
10.170000	0.002901	-0.000354	-0.000290
10.180000	0.002901	-3.854300E-5	-0.000290
10.190000	0.002582	0.000593	2.840100E-5
10.200000	0.002582	-0.000354	-0.000290
10.210000	0.002582	0.000277	-0.000290
10.220000	0.002901	0.000593	2.840100E-5
10.230000	0.002264	-3.854300E-5	-0.000290
10.240000	0.001945	-3.854300E-5	-0.000609
10.250000	0.002264	-3.854300E-5	-0.000609
10.260000	0.002901	-3.854300E-5	-0.000290
10.270000	0.003219	-3.854300E-5	-0.000609
10.280000	0.002901	0.000277	-0.000609
10.290000	0.002901	0.000277	-0.000609
10.300000	0.002582	0.000277	-0.000290
10.310000	0.002901	-0.000354	-0.000609
10.320000	0.002901	-3.854300E-5	2.840100E-5
10.330000	0.002582	-0.000354	-0.000290
10.340000	0.002582	-0.000354	-0.000290
10.350000	0.002264	-0.000354	-0.000609
10.360000	0.002264	-3.854300E-5	0.000347
10.370000	0.002901	0.000277	-0.000290
10.380000	0.002582	-3.854300E-5	-0.000609
10.390000	0.002264	-3.854300E-5	-0.000290
10.400000	0.002264	-3.854300E-5	-0.000928
10.410000	0.002264	-3.854300E-5	-0.000609
10.420000	0.002582	0.000277	-0.000290
10.430000	0.002901	0.000593	-0.000609
10.440000	0.002901	-3.854300E-5	-0.000609
10.450000	0.003538	0.000277	-0.000928
10.460000	0.002582	0.000277	-0.000609
10.470000	0.002901	-3.854300E-5	-0.000928
10.480000	0.002582	-3.854300E-5	-0.000290
10.490000	0.002582	0.000277	-0.000609
10.500000	0.001945	-0.000354	-0.001566
10.510000	0.002582	-3.854300E-5	-0.000609
10.520000	0.002901	-3.854300E-5	-0.000290
10.530000	0.002901	0.000277	-0.000928
10.540000	0.002582	0.000277	-0.000609
10.550000	0.002901	0.000593	-0.000290
10.560000	0.002264	-3.854300E-5	-0.000609
10.570000	0.002264	0.000277	2.840100E-5
10.580000	0.002582	-3.854300E-5	-0.001247
10.590000	0.002901	-0.000354	-0.000928
10.600000	0.003219	0.000277	2.840100E-5
10.610000	0.002582	-3.854300E-5	-0.000290
10.620000	0.003538	0.000277	0.000347
10.630000	0.002582	0.000277	2.840100E-5
10.640000	0.002582	-3.854300E-5	-0.000609
10.650000	0.002264	-0.000670	-0.000928
10.660000	0.002264	-3.854300E-5	2.840100E-5
10.670000	0.002582	0.000277	-0.000609
10.680000	0.002582	-0.000354	-0.000928
10.690000	0.002582	-3.854300E-5	2.840100E-5
10.700000	0.002582	-0.000354	2.840100E-5
10.710000	0.003219	0.000277	-0.001247
10.720000	0.002264	0.000593	-0.000290
10.730000	0.002264	-3.854300E-5	2.840100E-5
10.740000	0.002264	-0.000354	-0.000290
10.750000	0.002582	0.000277	-0.000290
10.760000	0.002582	-3.854300E-5	-0.000290
10.770000	0.003219	0.000593	-0.000290
10.780000	0.002264	-0.000354	-0.000928
10.790000	0.002582	0.000909	-0.000928
10.800000	0.002582	-0.000354	-0.000609
10.810000	0.002264	-0.000354	-0.000928
10.820000	0.002582	-3.854300E-5	-0.000609
10.830000	0.001945	-0.000670	-0.000609
10.840000	0.002582	-3.854300E-5	-0.000609
10.850000	0.002582	0.000277	-0.000290
10.860000	0.002582	0.000909	2.840100E-5
10.870000	0.002582	-0.000354	-0.000609
10.880000	0.002582	0.000277	-0.001247
10.890000	0.002901	-3.854300E-5	2.840100E-5
10.900000	0.002264	-0.000354	-0.000609
10.910000	0.002264	0.000277	-0.000609
10.920000	0.003219	0.000277	2.840100E-5
10.930000	0.002582	-3.854300E-5	-0.000928
10.940000	0.002264	-0.000354	-0.001566
10.950000	0.002582	-0.000354	-0.000290
10.960000	0.002264	-0.000354	-0.001247
10.970000	0.002264	-0.000354	-0.000609
10.980000	0.002582	-0.000354	-0.001247
10.990000	0.002901	0.000593	-0.000609
11.000000	0.003219	-3.854300E-5	0.000347
11.010000	0.002264	-0.000354	-0.001247
11.020000	0.002582	-3.854300E-5	0.000347
11.030000	0.002901	-0.000354	-0.000928
11.040000	0.002582	-3.854300E-5	-0.000290
11.050000	0.002582	0.000593	-0.000290
11.060000	0.002264	-0.000354	-0.001884
11.070000	0.002582	0.000909	0.000666
11.080000	0.002264	-0.000354	-0.000609
11.090000	0.002901	0.000909	2.840100E-5
11.100000	0.002264	-3.854300E-5	-0.001247
11.110000	0.002264	-0.000354	-0.000928
11.120000	0.002582	-3.854300E-5	-0.000290
11.130000	0.002264	0.000277	-0.000928
11.140000	0.002264	-3.854300E-5	-0.000928
11.150000	0.002582	-3.854300E-5	-0.000290
11.160000	0.002582	-0.000670	-0.001884
11.170000	0.002901	-3.854300E-5	-0.000609
11.180000	0.002264	-0.000354	-0.000290
11.190000	0.002582	0.000593	-0.000609
11.200000	0.002582	-3.854300E-5	-0.000609
11.210000	0.002264	-0.000354	-0.000609
11.220000	0.002582	-3.854300E-5	2.840100E-5
11.230000	0.002582	-0.000670	-0.000928
11.240000	0.002901	0.000593	-0.000609
11.250000	0.003219	0.000277	-0.000290
11.260000	0.002901	-3.854300E-5	-0.000290
11.270000	0.002582	-3.854300E-5	-0.000290
11.280000	0.002582	-3.854300E-5	-0.000290
11.290000	0.002582	-3.854300E-5	-0.000928
11.300000	0.002264	-3.854300E-5	-0.000928
11.310000	0.001945	-3.854300E-5	-0.001566
11.320000	0.002582	-0.000354	-0.000609
11.330000	0.002264	-0.000354	-0.001247
11.340000	0.002582	-3.854300E-5	-0.000290
11.350000	0.002582	-0.000354	-0.000609
11.360000	0.001945	-0.000354	-0.000609
11.370000	0.002264	-3.854300E-5	-0.000609
11.380000	0.002264	-3.854300E-5	-0.000928
11.390000	0.002582	-3.854300E-5	2.840100E-5
11.400000	0.002901	-0.000670	-0.000609
11.410000	0.002582	0.000277	-0.000609
11.420000	0.002264	0.000909	-0.000290
11.430000	0.002582	-0.000354	-0.001247
11.440000	0.002582	-3.854300E-5	2.840100E-5
11.450000	0.002264	0.000909	-0.000290
11.460000	0.002264	-3.854300E-5	-0.000928
11.470000	0.002264	-3.854300E-5	-0.000609
11.480000	0.001945	-0.000354	-0.000609
11.490000	0.002264	-3.854300E-5	-0.000290
11.500000	0.002582	-3.854300E-5	-0.000928
11.510000	0.002582	0.000277	-0.000609
11.520000	0.003219	-3.854300E-5	2.840100E-5
11.530000	0.002901	-3.854300E-5	-0.000609
11.540000	0.002901	-3.854300E-5	-0.000609
11.550000	0.002582	-0.000354	-0.000609
11.560000	0.002901	0.000593	-0.000290
11.570000	0.002582	0.000593	-0.000928
11.580000	0.002582	-3.854300E-5	-0.000290
11.590000	0.001945	-0.000354	-0.000609
11.600000	0.002901	-3.854300E-5	-0.000609
11.610000	0.002264	-0.000354	-0.000928
11.620000	0.001945	-3.854300E-5	-0.000609
11.630000	0.002264	-3.854300E-5	-0.000928
11.640000	0.002582	-0.000670	-0.001247
11.650000	0.002901	0.000593	0.000347
11.660000	0.002582	-3.854300E-5	-0.000928
11.670000	0.001945	-3.854300E-5	-0.001247
11.680000	0.001945	-3.854300E-5	-0.000928
11.690000	0.002264	0.000277	-0.000609
11.700000	0.002264	0.000277	-0.000928
11.710000	0.002582	-3.854300E-5	-0.000609
11.720000	0.003219	0.000277	2.840100E-5
11.730000	0.002901	-3.854300E-5	-0.000928
11.740000	0.002582	-3.854300E-5	-0.000290
11.750000	0.002582	-3.854300E-5	-0.000609
11.760000	0.002582	0.000277	-0.000609
11.770000	0.001945	-3.854300E-5	-0.000928
11.780000	0.001945	-3.854300E-5	-0.001247
11.790000	0.001626	0.000277	-0.000290
11.800000	0.002901	-3.854300E-5	0.000347
11.810000	0.002582	-0.000354	-0.001566
11.820000	0.002582	0.000593	-0.000290
11.830000	0.002582	-0.000354	-0.000928
11.840000	0.002264	-3.854300E-5	-0.000290
11.850000	0.002264	-0.000354	-0.000290
11.860000	0.002582	-3.854300E-5	-0.000928
11.870000	0.002264	-3.854300E-5	2.840100E-5
11.880000	0.002901	-0.000354	-0.000290
11.890000	0.002901	0.000909	-0.000609
11.900000	0.002264	0.000277	-0.000290
11.910000	0.002582	-0.000354	-0.000928
11.920000	0.002264	-3.854300E-5	2.840100E-5
11.930000	0.002582	-3.854300E-5	-0.001247
11.940000	0.002582	-0.000354	-0.000928
11.950000	0.002582	-3.854300E-5	-0.000290
11.960000	0.002582	-0.000354	-0.000928
11.970000	0.002901	0.000909	0.000347
11.980000	0.002582	-0.000354	-0.000928
11.990000	0.002264	-3.854300E-5	-0.000290
12.000000	0.002264	-0.000354	-0.000290
12.010000	0.002582	0.000277	-0.000928
12.020000	0.002264	-3.854300E-5	-0.000609
12.030000	0.002901	-3.854300E-5	-0.000290
12.040000	0.002901	0.000277	2.840100E-5
12.050000	0.002901	-0.000354	-0.000609
12.060000	0.002264	-0.000354	-0.000609
12.070000	0.002582	0.000909	0.000666
12.080000	0.002264	-0.000354	-0.000928
12.090000	0.002901	-0.000354	-0.000290
12.100000	0.002582	-3.854300E-5	-0.000609
12.110000	0.002582	-3.854300E-5	-0.000290
12.120000	0.003219	-3.854300E-5	-0.000609
12.130000	0.001945	0.000277	-0.000928
12.140000	0.002582	0.000277	-0.000609
12.150000	0.002264	-3.854300E-5	-0.000290
12.160000	0.002264	-0.000670	-0.000928
12.170000	0.002582	-3.854300E-5	-0.000609
12.180000	0.001945	-3.854300E-5	-0.000290
12.190000	0.002582	-3.854300E-5	-0.000609
12.200000	0.002901	0.000277	-0.000609
12.210000	0.002582	0.000593	-0.000290
12.220000	0.002582	-0.000354	-0.000290
12.230000	0.002582	-3.854300E-5	-0.000290
12.240000	0.002582	0.000277	-0.000290
12.250000	0.002901	-3.854300E-5	2.840100E-5
12.260000	0.002582	-3.854300E-5	-0.000928
12.270000	0.002901	0.000593	-0.000290
12.280000	0.002582	-0.000354	-0.000290
12.290000	0.002901	-0.000354	2.840100E-5
12.300000	0.002582	-3.854300E-5	-0.000609
12.310000	0.002582	-0.000354	-0.000290
12.320000	0.003219	0.000277	-0.000290
12.330000	0.002582	-3.854300E-5	-0.000290
12.340000	0.002582	0.000277	-0.000290
12.350000	0.002582	0.000593	-0.000290
12.360000	0.001945	-0.000354	-0.000928
12.370000	0.002901	-3.854300E-5	-0.000290
12.380000	0.002582	0.000277	-0.000290
12.390000	0.002264	0.000277	0.000347
12.400000	0.002901	-3.854300E-5	-0.000609
12.410000	0.002582	-0.000354	-0.000928
12.420000	0.003219	0.000277	-0.000290
12.430000	0.002901	-3.854300E-5	-0.000928
12.440000	0.002264	-3.854300E-5	-0.000609
12.450000	0.002582	-0.000354	-0.000290
12.460000	0.002582	-0.000354	-0.000290
12.470000	0.002582	0.000277	-0.000290
12.480000	0.003219	0.000277	-0.000928
12.490000	0.002582	0.000277	2.840100E-5
12.500000	0.002901	-3.854300E-5	-0.000609
12.510000	0.002582	0.000277	-0.000928
12.520000	0.002582	0.000593	0.000347
12.530000	0.002264	-0.000354	-0.000928
12.540000	0.002582	-3.854300E-5	-0.000609
12.550000	0.002901	0.000593	-0.000609
12.560000	0.002582	0.000277	-0.000609
12.570000	0.002264	-3.854300E-5	-0.000609
12.580000	0.002582	-3.854300E-5	-0.000290
12.590000	0.002901	0.000593	-0.000928
12.600000	0.002901	-3.854300E-5	-0.000609
12.610000	0.001626	-3.854300E-5	-0.000928
12.620000	0.002582	-3.854300E-5	-0.000609
12.630000	0.002264	-0.000354	-0.000609
12.640000	0.002582	0.000277	-0.000609
12.650000	0.001945	0.000277	-0.000928
12.660000	0.002901	-3.854300E-5	-0.000290
12.670000	0.003219	0.000593	-0.000290
12.680000	0.002901	-3.854300E-5	-0.000928
12.690000	0.002901	0.000277	2.840100E-5
12.700000	0.002582	-3.854300E-5	-0.000290
12.710000	0.002582	0.000277	-0.000609
12.720000	0.002582	-0.000354	2.840100E-5
12.730000	0.002582	-3.854300E-5	-0.000609
12.740000	0.002901	-0.000354	-0.000609
12.750000	0.002582	-3.854300E-5	-0.000609
12.760000	0.002582	0.000277	-0.000609
12.770000	0.002582	0.000277	2.840100E-5
12.780000	0.002582	-3.854300E-5	-0.000928
12.790000	0.002264	0.000277	-0.000290
12.800000	0.002582	0.000593	2.840100E-5
12.810000	0.002582	0.000277	-0.000609
12.820000	0.003538	0.000277	-0.000290
12.830000	0.003219	0.000593	-0.000609
12.840000	0.002901	0.000277	-0.000290
12.850000	0.002582	0.000909	2.840100E-5
12.860000	0.002264	-3.854300E-5	-0.000609
12.870000	0.002901	-3.854300E-5	-0.000290
12.880000	0.002582	-3.854300E-5	-0.000609
12.890000	0.002901	0.000277	-0.000290
12.900000	0.002582	-3.854300E-5	-0.000609
12.910000	0.002582	-3.854300E-5	-0.000609
12.920000	0.002582	0.000909	2.840100E-5
12.930000	0.002264	-3.854300E-5	-0.000290
12.940000	0.002582	0.000909	-0.000290
12.950000	0.002582	-0.000354	-0.000928
12.960000	0.002264	-3.854300E-5	2.840100E-5
12.970000	0.002582	-3.854300E-5	-0.000609
12.980000	0.002264	0.000277	-0.000290
12.990000	0.002901	-3.854300E-5	-0.000609
13.000000	0.002264	-0.000354	-0.000609
13.010000	0.002901	0.000277	-0.000609
13.020000	0.002582	-3.854300E-5	-0.000290
13.030000	0.002901	-3.854300E-5	-0.000609
13.040000	0.002582	0.000277	-0.000290
13.050000	0.001945	-0.000354	-0.000609
13.060000	0.001945	-0.000354	-0.000928
13.070000	0.002582	-3.854300E-5	-0.000290
13.080000	0.002582	-3.854300E-5	-0.000290
13.090000	0.002901	-3.854300E-5	-0.000609
13.100000	0.002582	0.000277	2.840100E-5
13.110000	0.001945	0.000593	-0.000609
13.120000	0.002582	-3.854300E-5	-0.000290
13.130000	0.002582	-3.854300E-5	-0.001247
13.140000	0.002264	-0.000354	-0.000290
13.150000	0.002582	-0.000354	-0.000609
13.160000	0.002264	-0.000354	-0.000609
13.170000	0.002582	0.000277	-0.000609
13.180000	0.002264	0.000909	2.840100E-5
13.190000	0.002582	0.000277	-0.000290
13.200000	0.002901	-3.854300E-5	2.840100E-5
13.210000	0.002582	-0.000354	2.840100E-5
13.220000	0.002901	0.000277	-0.000290
13.230000	0.002264	0.000277	-0.000290
13.240000	0.002264	-3.854300E-5	-0.000928
13.250000	0.002582	-3.854300E-5	-0.000290
13.260000	0.002582	-3.854300E-5	-0.001566
13.270000	0.002901	0.000593	-0.000609
13.280000	0.002582	-3.854300E-5	2.840100E-5
13.290000	0.002264	-3.854300E-5	-0.000928
13.300000	0.002582	0.000277	-0.000928
13.310000	0.003219	-3.854300E-5	-0.000290
13.320000	0.002264	-0.000354	2.840100E-5
13.330000	0.002264	-0.000354	-0.000609
13.340000	0.002901	-3.854300E-5	-0.000928
13.350000	0.002264	-3.854300E-5	-0.000609
13.360000	0.002264	-0.000354	2.840100E-5
13.370000	0.001945	-3.854300E-5	-0.000928
13.380000	0.002264	-3.854300E-5	-0.000609
13.390000	0.002582	0.000593	-0.000609
13.400000	0.002582	-0.000354	-0.000609
13.410000	0.002582	-0.000354	-0.000609
13.420000	0.002264	-3.854300E-5	-0.000609
13.430000	0.002582	-0.000670	-0.000928
13.440000	0.002582	-0.000354	-0.000290
13.450000	0.002582	-3.854300E-5	-0.000928
13.460000	0.002582	-0.000354	-0.000928
13.470000	0.002582	0.000277	-0.000290
13.480000	0.002901	-3.854300E-5	-0.000609
13.490000	0.002901	-3.854300E-5	-0.000290
13.500000	0.002582	0.000593	-0.000609
13.510000	0.002582	-0.000354	-0.000928
13.520000	0.002264	0.000593	-0.000290
13.530000	0.002264	-0.000670	-0.000928
13.540000	0.002582	-0.000354	-0.000609
13.550000	0.002582	-0.000354	-0.000928
13.560000	0.002582	-3.854300E-5	-0.000609
13.570000	0.002901	0.000277	-0.000290
13.580000	0.002264	-3.854300E-5	-0.000928
13.590000	0.002582	-3.854300E-5	-0.000928
13.600000	0.002264	-0.000354	-0.000609
13.610000	0.002901	0.000277	-0.000609
13.620000	0.001945	-3.854300E-5	-0.000609
13.630000	0.002264	-3.854300E-5	-0.000928
13.640000	0.002901	-3.854300E-5	-0.000609
13.650000	0.002582	-3.854300E-5	2.840100E-5
13.660000	0.002582	-3.854300E-5	-0.001247
13.670000	0.002901	-3.854300E-5	-0.000609
13.680000	0.002264	-3.854300E-5	-0.000290
13.690000	0.002582	-0.000354	-0.000609
13.700000	0.001945	-3.854300E-5	-0.000928
13.710000	0.002582	0.000277	-0.000609
13.720000	0.002264	-0.000670	-0.000609
13.730000	0.001945	-3.854300E-5	-0.001247
13.740000	0.002264	-3.854300E-5	-0.000609
13.750000	0.002582	-3.854300E-5	-0.000290
13.760000	0.001945	-0.000354	-0.000928
13.770000	0.002901	-3.854300E-5	2.840100E-5
13.780000	0.002582	0.000277	-0.000609
13.790000	0.002901	-0.000354	-0.000290
13.800000	0.002264	-3.854300E-5	2.840100E-5
13.810000	0.002582	-3.854300E-5	-0.000609
13.820000	0.002901	-0.000354	-0.000928
13.830000	0.001945	-3.854300E-5	-0.001247
13.840000	0.001945	-3.854300E-5	-0.000290
13.850000	0.002901	-3.854300E-5	-0.000928
13.860000	0.002582	-3.854300E-5	-0.000609
13.870000	0.002582	-3.854300E-5	-0.000928
13.880000	0.002901	0.000593	2.840100E-5
13.890000	0.001626	0.000277	-0.000609
13.900000	0.002582	-3.854300E-5	-0.000609
13.910000	0.002264	0.000277	-0.000290
13.920000	0.002264	-0.000354	2.840100E-5
13.930000	0.002582	-3.854300E-5	-0.000928
13.940000	0.002582	-0.000354	-0.000290
13.950000	0.002264	-3.854300E-5	2.840100E-5
13.960000	0.003538	0.000277	-0.000928
13.970000	0.002582	-0.000354	2.840100E-5
13.980000	0.002582	-3.854300E-5	-0.000609
13.990000	0.001945	-3.854300E-5	-0.000609
14.000000	0.002582	-3.854300E-5	-0.000928
14.010000	0.002582	0.000277	-0.000609
14.020000	0.002582	-0.000354	-0.000609
14.030000	0.002264	-0.000670	-0.000928
14.040000	0.002264	0.000277	-0.000609
14.050000	0.002264	0.000593	-0.000609
14.060000	0.002264	-0.000354	-0.000928
14.070000	0.002264	-3.854300E-5	2.840100E-5
14.080000	0.002582	0.000593	-0.000609
14.090000	0.002582	-3.854300E-5	-0.000928
14.100000	0.002582	-3.854300E-5	2.840100E-5
14.110000	0.002582	-3.854300E-5	-0.000928
14.120000	0.002582	0.000909	2.840100E-5
14.130000	0.002264	-3.854300E-5	-0.000928
14.140000	0.002582	-3.854300E-5	-0.000609
14.150000	0.002901	0.000593	2.840100E-5
14.160000	0.002264	-0.001302	-0.001566
14.170000	0.002582	0.000277	-0.000290
14.180000	0.002582	-3.854300E-5	-0.000609
14.190000	0.002264	-0.000354	-0.000928
14.200000	0.002264	-3.854300E-5	-0.000928
14.210000	0.002582	-3.854300E-5	-0.000290
14.220000	0.002264	0.000277	2.840100E-5
14.230000	0.001945	-0.000354	-0.000609
14.240000	0.002901	0.000277	-0.000609
14.250000	0.002582	-3.854300E-5	-0.000290
14.260000	0.002582	-0.000354	-0.000609
14.270000	0.002582	-3.854300E-5	-0.000290
14.280000	0.002582	0.000593	-0.000290
14.290000	0.002582	-3.854300E-5	-0.000290
14.300000	0.002901	-0.000354	-0.000609
14.310000	0.002582	-0.000354	-0.000609
14.320000	0.002582	-3.854300E-5	2.840100E-5
14.330000	0.002582	-0.000670	-0.000928
14.340000	0.002901	-3.854300E-5	-0.000290
14.350000	0.002582	0.000277	-0.000609
14.360000	0.002264	-0.000354	-0.000928
14.370000	0.003219	0.000277	-0.000290
14.380000	0.001945	-0.000354	-0.000290
14.390000	0.002582	0.000593	2.840100E-5
14.400000	0.002582	-0.000670	-0.000290
14.410000	0.002582	-0.000354	-0.000290
14.420000	0.002901	0.000277	-0.000290
14.430000	0.002901	-3.854300E-5	-0.000290
14.440000	0.002582	0.000593	-0.000290
14.450000	0.002582	-0.000354	-0.000290
14.460000	0.002901	-0.000354	-0.000609
14.470000	0.001945	-3.854300E-5	-0.000609
14.480000	0.002582	-0.000354	-0.000609
14.490000	0.002582	-3.854300E-5	-0.000928
14.500000	0.002264	-0.000354	-0.000609
14.510000	0.002901	-0.000354	-0.001247
14.520000	0.002582	-3.854300E-5	-0.000290
14.530000	0.001945	-3.854300E-5	-0.000290
14.540000	0.002582	-3.854300E-5	-0.000290
14.550000	0.002582	-0.000354	-0.000290
14.560000	0.002901	-0.000354	-0.000290
14.570000	0.001945	-3.854300E-5	-0.000290
14.580000	0.002901	0.000277	-0.000290
14.590000	0.002901	-0.000354	-0.000609
14.600000	0.002264	-3.854300E-5	-0.000609
14.610000	0.002264	-3.854300E-5	-0.000290
14.620000	0.002582	-3.854300E-5	2.840100E-5
14.630000	0.002901	-0.000354	-0.000609
14.640000	0.002264	0.000277	-0.000609
14.650000	0.002582	-3.854300E-5	-0.000609
14.660000	0.002901	-3.854300E-5	-0.000290
14.670000	0.002582	0.000593	-0.000290
14.680000	0.002582	-3.854300E-5	-0.000609
14.690000	0.002901	-3.854300E-5	-0.000928
14.700000	0.002582	-3.854300E-5	-0.000928
14.710000	0.002582	-0.000354	-0.000928
14.720000	0.002582	-3.854300E-5	-0.000290
14.730000	0.002582	0.000277	-0.000290
14.740000	0.002901	0.000277	-0.000928
14.750000	0.003219	-0.000354	-0.000290
14.760000	0.001626	0.000593	-0.000609
14.770000	0.002264	-3.854300E-5	-0.000290
14.780000	0.002582	-3.854300E-5	-0.001247
14.790000	0.002264	-3.854300E-5	-0.000928
14.800000	0.002901	0.000277	-0.000609
14.810000	0.002901	-3.854300E-5	-0.000609
14.820000	0.002264	-0.000354	-0.000609
14.830000	0.002901	0.000277	-0.000290
14.840000	0.002264	-3.854300E-5	-0.000609
14.850000	0.002264	-3.854300E-5	-0.000928
14.860000	0.002901	-3.854300E-5	-0.000609
14.870000	0.003538	0.000593	0.000347
14.880000	0.002264	-0.000354	-0.000609
14.890000	0.002901	0.000277	-0.000290
14.900000	0.002582	-3.854300E-5	-0.000290
14.910000	0.002264	-0.000354	-0.000290
14.920000	0.002582	0.000277	-0.000290
14.930000	0.002901	0.000277	-0.000928
14.940000	0.002582	0.000593	-0.000609
14.950000	0.001945	-3.854300E-5	-0.000928
14.960000	0.002264	-0.000354	-0.000928
14.970000	0.002901	0.000593	-0.000290
14.980000	0.003219	-3.854300E-5	-0.000928
14.990000	0.002901	-3.854300E-5	-0.000609
15.000000	0.002582	-0.000354	-0.000609
15.010000	0.003219	-3.854300E-5	-0.000609
15.020000	0.002582	-0.000354	2.840100E-5
15.030000	0.001945	-3.854300E-5	-0.000928
15.040000	0.002582	0.000593	-0.000609
15.050000	0.002901	-3.854300E-5	-0.000609
15.060000	0.002901	-3.854300E-5	-0.000609
15.070000	0.003219	0.000277	-0.000290
15.080000	0.002264	-0.000354	-0.000609
15.090000	0.002901	0.000277	2.840100E-5
15.100000	0.002264	-3.854300E-5	-0.000290
15.110000	0.002901	-3.854300E-5	-0.000290
15.120000	0.002582	0.000593	-0.000290
15.130000	0.002264	-3.854300E-5	-0.000928
15.140000	0.002582	-3.854300E-5	-0.001247
15.150000	0.002901	-3.854300E-5	-0.000290
15.160000	0.002901	-3.854300E-5	-0.000290
15.170000	0.003538	-3.854300E-5	-0.000290
15.180000	0.003219	0.000277	-0.000609
15.190000	0.002582	0.000593	2.840100E-5
15.200000	0.002582	-3.854300E-5	-0.000609
15.210000	0.002582	-3.854300E-5	-0.000609
15.220000	0.002582	-3.854300E-5	-0.000609
15.230000	0.003219	0.000277	2.840100E-5
15.240000	0.001945	0.000277	-0.000290
15.250000	0.002582	-3.854300E-5	-0.000609
15.260000	0.002264	-0.000354	2.840100E-5
15.270000	0.002582	0.000593	2.840100E-5
15.280000	0.002264	-3.854300E-5	-0.000928
15.290000	0.002582	-3.854300E-5	-0.000609
15.300000	0.002901	0.000909	-0.000290
15.310000	0.002582	-3.854300E-5	-0.000609
15.320000	0.002582	0.000277	0.000347
15.330000	0.001945	0.000593	-0.000609
15.340000	0.002582	-3.854300E-5	-0.000290
15.350000	0.002582	-3.854300E-5	-0.001247
15.360000	0.002901	0.000277	-0.000928
15.370000	0.002582	-3.854300E-5	2.840100E-5
15.380000	0.002582	-0.000354	-0.000290
15.390000	0.002582	-0.000354	-0.000609
15.400000	0.002264	0.000593	-0.000609
15.410000	0.002264	0.000277	-0.000290
15.420000	0.002264	-0.000354	-0.000290
15.430000	0.002582	0.000277	-0.000928
15.440000	0.002264	-3.854300E-5	-0.000928
15.450000	0.002264	-3.854300E-5	-0.000928
15.460000	0.002901	-3.854300E-5	-0.000609
15.470000	0.002264	-0.000354	2.840100E-5
15.480000	0.002582	-3.854300E-5	-0.000609
15.490000	0.002901	-3.854300E-5	-0.000609
15.500000	0.002582	-0.000354	-0.000609
15.510000	0.002901	-3.854300E-5	-0.000290
15.520000	0.002582	0.000277	-0.000290
15.530000	0.002582	-3.854300E-5	-0.000928
15.540000	0.002582	0.000277	-0.000290
15.550000	0.002901	-0.000354	-0.000609
15.560000	0.001945	0.000277	-0.000928
15.570000	0.002582	-3.854300E-5	2.840100E-5
15.580000	0.001626	-0.000354	-0.000928
15.590000	0.002264	-0.000354	-0.000609
15.600000	0.002582	-0.000354	-0.000928
15.610000	0.002582	0.000593	-0.000609
15.620000	0.002582	0.000909	2.840100E-5
15.630000	0.001626	-0.000354	-0.000928
15.640000	0.002264	0.000593	-0.000928
15.650000	0.002901	0.000593	-0.000290
15.660000	0.001945	-3.854300E-5	-0.000609
15.670000	0.002582	-3.854300E-5	-0.000609
15.680000	0.002901	-3.854300E-5	-0.000609
15.690000	0.002901	0.000593	-0.000928
15.700000	0.002582	-0.000354	-0.000609
15.710000	0.001626	-0.000354	-0.001247
15.720000	0.002901	0.000909	2.840100E-5
15.730000	0.002264	-0.000354	-0.000928
15.740000	0.001945	-3.854300E-5	-0.001247
15.750000	0.002582	0.000277	2.840100E-5
15.760000	0.002264	-0.000354	-0.000290
15.770000	0.001626	-0.000670	-0.000290
15.780000	0.002264	-0.000354	-0.000928
15.790000	0.002901	0.000277	2.840100E-5
15.800000	0.002582	-0.000354	-0.000290
15.810000	0.002264	0.000277	2.840100E-5
15.820000	0.002582	-0.000354	-0.000290
15.830000	0.002582	-3.854300E-5	-0.000609
15.840000	0.002264	-3.854300E-5	-0.000290
15.850000	0.002582	-3.854300E-5	-0.000928
15.860000	0.002582	0.000593	-0.000609
15.870000	0.002264	0.000593	2.840100E-5
15.880000	0.002582	-0.000354	-0.000928
15.890000	0.002582	0.000277	-0.000928
15.900000	0.002582	-3.854300E-5	-0.000290
15.910000	0.002901	0.000593	-0.000290
15.920000	0.002264	-3.854300E-5	-0.000609
15.930000	0.002582	0.000277	-0.000609
15.940000	0.002901	0.000593	0.000347
15.950000	0.002264	0.000277	-0.000290
15.960000	0.002901	-0.000670	-0.001247
15.970000	0.002901	-3.854300E-5	-0.000290
15.980000	0.002582	-0.000354	-0.000928
15.990000	0.002264	-0.000354	-0.000609
16.000000	0.002264	-0.000354	-0.000928
16.010000	0.002264	-0.000354	-0.000609
16.020000	0.002264	-3.854300E-5	-0.000928
16.030000	0.002264	-3.854300E-5	-0.000928
16.040000	0.002582	0.000593	-0.000290
16.050000	0.002582	-3.854300E-5	-0.000609
16.060000	0.002582	-3.854300E-5	-0.001247
16.070000	0.002582	0.000277	-0.000290
16.080000	0.002264	-0.000670	-0.000928
16.090000	0.002582	-0.000354	-0.000609
16.100000	0.002264	-3.854300E-5	-0.000609
16.110000	0.002264	-3.854300E-5	-0.000290
16.120000	0.002264	0.000593	2.840100E-5
16.130000	0.002582	-3.854300E-5	-0.000609
16.140000	0.002901	0.000909	-0.000609
16.150000	0.002901	0.000277	-0.000609
16.160000	0.001945	-3.854300E-5	-0.000928
16.170000	0.002901	-0.000354	-0.000290
16.180000	0.002264	-0.000354	-0.000928
16.190000	0.002264	-3.854300E-5	-0.000928
16.200000	0.002582	-3.854300E-5	-0.000609
16.210000	0.001945	0.000277	-0.000290
16.220000	0.002264	-3.854300E-5	-0.000290
16.230000	0.002582	0.000277	-0.000928
16.240000	0.001945	-3.854300E-5	-0.000609
16.250000	0.002264	0.000277	-0.000928
16.260000	0.002582	-0.000354	-0.000928
16.270000	0.002901	0.000277	-0.000290
16.280000	0.002582	0.000593	-0.000290
16.290000	0.002582	-3.854300E-5	-0.000609
16.300000	0.002901	-3.854300E-5	-0.000290
16.310000	0.002582	0.000277	-0.000609
16.320000	0.002582	-3.854300E-5	-0.000928
16.330000	0.002264	-3.854300E-5	-0.001247
16.340000	0.002901	0.000909	-0.000609
16.350000	0.002582	-0.000354	-0.001247
16.360000	0.002264	-0.000670	-0.000928
16.370000	0.002264	-3.854300E-5	-0.000290
16.380000	0.002582	-3.854300E-5	-0.000609
16.390000	0.002582	0.000593	-0.000290
16.400000	0.002901	0.000277	-0.000928
16.410000	0.002264	0.000593	0.000666
16.420000	0.002582	-3.854300E-5	2.840100E-5
16.430000	0.002582	-0.000354	-0.001247
16.440000	0.002264	0.000593	-0.000609
16.450000	0.002264	-3.854300E-5	-0.000609
16.460000	0.001945	-3.854300E-5	-0.000609
16.470000	0.002901	-3.854300E-5	-0.000928
16.480000	0.002582	0.000277	-0.000290
16.490000	0.002582	-3.854300E-5	-0.000609
16.500000	0.002582	-0.000354	-0.000609
16.510000	0.002582	-3.854300E-5	-0.001247
16.520000	0.002264	-3.854300E-5	-0.000609
16.530000	0.001945	-3.854300E-5	-0.001247
16.540000	0.002901	-3.854300E-5	-0.000928
16.550000	0.002264	0.000593	0.000347
16.560000	0.002264	-0.000670	-0.000609
16.570000	0.002582	-3.854300E-5	-0.000609
16.580000	0.002901	-0.000354	-0.000609
16.590000	0.002264	-3.854300E-5	-0.000290
16.600000	0.003538	-3.854300E-5	2.840100E-5
16.610000	0.002901	0.000277	-0.000290
16.620000	0.003219	0.000593	2.840100E-5
16.630000	0.002264	-3.854300E-5	-0.000609
16.640000	0.002582	0.000593	-0.000290
16.650000	0.002582	0.000277	-0.000290
16.660000	0.002582	-3.854300E-5	-0.000928
16.670000	0.002582	0.000593	-0.000290
16.680000	0.002901	-3.854300E-5	2.840100E-5
16.690000	0.002264	0.000593	-0.000928
16.700000	0.002901	-0.000670	-0.000928
16.710000	0.002582	-3.854300E-5	2.840100E-5
16.720000	0.002582	-3.854300E-5	-0.000290
16.730000	0.002582	-0.000354	2.840100E-5
16.740000	0.003219	0.000593	-0.000290
16.750000	0.002582	-3.854300E-5	-0.000290
16.760000	0.002264	-3.854300E-5	-0.000290
16.770000	0.002901	0.000277	-0.000290
16.780000	0.002901	-3.854300E-5	-0.000928
16.790000	0.002582	-3.854300E-5	2.840100E-5
16.800000	0.002901	0.000909	-0.000290
16.810000	0.002264	-3.854300E-5	-0.000609
16.820000	0.002582	-3.854300E-5	-0.000290
16.830000	0.002264	0.000277	-0.000290
16.840000	0.002582	-0.000670	-0.000609
16.850000	0.001945	-0.000354	-0.000928
16.860000	0.002582	0.000593	-0.000928
16.870000	0.002901	0.000909	0.000347
16.880000	0.002582	-0.000670	-0.001566
16.890000	0.002582	0.000277	-0.000290
16.900000	0.001945	0.000277	-0.000609
16.910000	0.002582	-0.000670	-0.000928
16.920000	0.002582	0.000277	-0.000928
16.930000	0.002901	0.000909	-0.000290
16.940000	0.003219	0.000909	0.000347
16.950000	0.002582	0.000593	-0.000290
16.960000	0.002582	-0.000354	-0.000290
16.970000	0.002901	0.000593	2.840100E-5
16.980000	0.002582	0.000277	-0.000609
16.990000	0.002901	0.000909	-0.000290

