LabVIEW Measurement	
Writer_Version	2
Reader_Version	2
Separator	Tab
Decimal_Separator	.
Multi_Headings	Yes
X_Columns	One
Time_Pref	Absolute
Operator	rsh2268
Date	2024/10/15
Time	17:29:27.8239087999995785422
***End_of_Header***	
	
Channels	3			
Samples	1500	1500	1500	
Date	2024/10/15	2024/10/15	2024/10/15	
Time	17:29:27.8239087999995785422	17:29:27.8239087999995785422	17:29:27.8239087999995785422	
Y_Unit_Label	Volts	Volts	Volts	
X_Dimension	Time	Time	Time	
X0	0.0000000000000000E+0	0.0000000000000000E+0	0.0000000000000000E+0	
Delta_X	0.010000	0.010000	0.010000	
***End_of_Header***				
X_Value	cDAQ2Mod1/ai0	cDAQ2Mod1/ai1	cDAQ2Mod1/ai2	Comment
0.000000	0.003219	-0.000986	-0.000928
0.010000	0.002582	0.000277	-0.000928
0.020000	0.001945	-3.854300E-5	-0.000928
0.030000	0.002901	-0.000354	-0.000290
0.040000	0.003219	0.000593	-0.000290
0.050000	0.002901	-3.854300E-5	-0.000290
0.060000	0.001945	-0.000354	-0.000928
0.070000	0.002582	-3.854300E-5	-0.000609
0.080000	0.002264	0.000277	-0.000290
0.090000	0.002582	-0.000354	-0.000609
0.100000	0.002582	-3.854300E-5	-0.000928
0.110000	0.002264	-3.854300E-5	-0.000609
0.120000	0.002582	-0.000354	-0.000928
0.130000	0.002582	-0.000354	2.840100E-5
0.140000	0.002582	-3.854300E-5	-0.000609
0.150000	0.002901	-0.000670	-0.000928
0.160000	0.002582	-0.000354	-0.000928
0.170000	0.002582	-0.000354	-0.000609
0.180000	0.002901	0.000593	-0.000290
0.190000	0.003219	0.000593	-0.000290
0.200000	0.002901	-3.854300E-5	0.000347
0.210000	0.002582	-0.000354	-0.000609
0.220000	0.002582	0.000593	-0.000290
0.230000	0.002582	0.000277	-0.000609
0.240000	0.002582	0.000277	-0.000290
0.250000	0.001945	-0.000354	-0.000609
0.260000	0.001945	-3.854300E-5	-0.000928
0.270000	0.002264	-3.854300E-5	-0.001247
0.280000	0.002582	0.000277	-0.000609
0.290000	0.001626	-0.000670	-0.000609
0.300000	0.002582	-3.854300E-5	-0.000928
0.310000	0.002582	-0.000354	-0.000290
0.320000	0.002264	-0.000354	-0.000928
0.330000	0.002582	-3.854300E-5	2.840100E-5
0.340000	0.002582	0.000277	-0.000290
0.350000	0.002582	-0.000670	-0.000609
0.360000	0.002264	-3.854300E-5	-0.000928
0.370000	0.002582	-0.000354	-0.000609
0.380000	0.002901	0.000593	0.000347
0.390000	0.002582	-3.854300E-5	-0.000928
0.400000	0.002582	-0.000354	-0.001247
0.410000	0.002582	0.000277	-0.000609
0.420000	0.001626	-0.000354	-0.000928
0.430000	0.002901	-3.854300E-5	-0.000609
0.440000	0.002264	-0.000670	-0.000609
0.450000	0.002901	-0.000354	-0.000290
0.460000	0.002582	0.000593	-0.000609
0.470000	0.001945	-0.000354	-0.000928
0.480000	0.002582	-3.854300E-5	0.000347
0.490000	0.002264	-0.000354	-0.000928
0.500000	0.002582	-3.854300E-5	-0.000290
0.510000	0.002264	-3.854300E-5	-0.000609
0.520000	0.002901	-3.854300E-5	0.000347
0.530000	0.002582	-3.854300E-5	-0.000609
0.540000	0.002264	-0.000354	-0.000928
0.550000	0.002582	-3.854300E-5	-0.000928
0.560000	0.002264	0.000277	-0.000928
0.570000	0.002582	0.000277	-0.000928
0.580000	0.002582	0.000277	2.840100E-5
0.590000	0.002264	0.000277	-0.001247
0.600000	0.002582	0.000593	-0.000928
0.610000	0.001945	-0.000354	-0.001247
0.620000	0.002264	-0.000354	-0.000609
0.630000	0.002582	0.000593	-0.000609
0.640000	0.002264	-0.000354	-0.000928
0.650000	0.002901	-3.854300E-5	-0.000928
0.660000	0.002582	-3.854300E-5	-0.000609
0.670000	0.002582	-0.000354	-0.000609
0.680000	0.002582	0.000277	-0.000290
0.690000	0.002264	-0.000354	-0.000928
0.700000	0.002264	-0.000354	-0.000609
0.710000	0.001945	-0.000354	-0.000928
0.720000	0.002901	-3.854300E-5	-0.000609
0.730000	0.002264	0.000277	0.000347
0.740000	0.002582	-0.000354	-0.000609
0.750000	0.002582	-0.000354	-0.000928
0.760000	0.001945	0.000277	-0.000609
0.770000	0.002264	-3.854300E-5	-0.000928
0.780000	0.002264	0.000593	-0.000290
0.790000	0.002264	-3.854300E-5	-0.000290
0.800000	0.002582	-3.854300E-5	-0.000609
0.810000	0.002264	-0.000354	-0.000290
0.820000	0.002582	0.000909	2.840100E-5
0.830000	0.002264	-3.854300E-5	-0.000290
0.840000	0.002582	-3.854300E-5	-0.000290
0.850000	0.002582	-0.000354	-0.000609
0.860000	0.002582	-0.000354	-0.000609
0.870000	0.002264	-3.854300E-5	-0.001247
0.880000	0.002582	-0.000354	-0.000609
0.890000	0.002582	-0.000354	-0.000928
0.900000	0.002901	0.000593	-0.000290
0.910000	0.002264	-0.000670	-0.000928
0.920000	0.003219	-3.854300E-5	-0.000928
0.930000	0.002582	-0.000354	-0.000928
0.940000	0.002901	-3.854300E-5	-0.000609
0.950000	0.002901	-0.000354	2.840100E-5
0.960000	0.003538	-3.854300E-5	-0.000290
0.970000	0.002582	-0.000354	-0.000609
0.980000	0.002582	-0.000670	-0.000609
0.990000	0.002264	-3.854300E-5	-0.000609
1.000000	0.002582	-0.000354	-0.000609
1.010000	0.002264	-3.854300E-5	-0.000928
1.020000	0.001945	-0.000354	-0.000609
1.030000	0.001945	-3.854300E-5	-0.000290
1.040000	0.002582	-3.854300E-5	-0.000290
1.050000	0.002264	0.000277	-0.000609
1.060000	0.001945	-0.000354	-0.000928
1.070000	0.002582	-3.854300E-5	-0.000609
1.080000	0.002582	-0.000670	-0.000928
1.090000	0.002264	-0.000354	-0.000290
1.100000	0.002582	-3.854300E-5	-0.000609
1.110000	0.002264	-3.854300E-5	-0.000609
1.120000	0.003219	-3.854300E-5	2.840100E-5
1.130000	0.002582	-0.000354	-0.000290
1.140000	0.002582	-3.854300E-5	-0.000290
1.150000	0.002264	-3.854300E-5	-0.000609
1.160000	0.002582	-0.000354	-0.000928
1.170000	0.002901	-3.854300E-5	-0.000609
1.180000	0.001945	-3.854300E-5	-0.001247
1.190000	0.002582	-3.854300E-5	-0.000609
1.200000	0.002582	0.000277	-0.000290
1.210000	0.002264	-0.000354	-0.000928
1.220000	0.002901	0.000593	-0.000609
1.230000	0.002901	0.000277	-0.000928
1.240000	0.001945	-3.854300E-5	-0.000290
1.250000	0.002582	0.000593	-0.000290
1.260000	0.002264	-0.000354	-0.000609
1.270000	0.002264	-0.000354	-0.001884
1.280000	0.002901	-0.000354	2.840100E-5
1.290000	0.002264	-0.000354	-0.000290
1.300000	0.002264	0.000593	2.840100E-5
1.310000	0.001945	-0.000354	-0.000609
1.320000	0.002901	0.000277	-0.000290
1.330000	0.002901	0.000593	2.840100E-5
1.340000	0.002582	-0.000354	2.840100E-5
1.350000	0.002264	-3.854300E-5	-0.000928
1.360000	0.002582	-3.854300E-5	-0.000290
1.370000	0.001626	-3.854300E-5	-0.000290
1.380000	0.003219	0.000277	2.840100E-5
1.390000	0.002582	-3.854300E-5	-0.000609
1.400000	0.003219	-0.000354	-0.000928
1.410000	0.002582	0.000593	-0.000609
1.420000	0.001945	0.000277	-0.000290
1.430000	0.002901	-0.000354	-0.000290
1.440000	0.003219	-0.000354	2.840100E-5
1.450000	0.002582	-0.000354	-0.000609
1.460000	0.002901	0.000593	-0.000609
1.470000	0.002901	-0.000354	-0.000290
1.480000	0.002901	-3.854300E-5	-0.000290
1.490000	0.002901	-0.000354	-0.000609
1.500000	0.002582	-3.854300E-5	0.000347
1.510000	0.003219	-0.000670	-0.000609
1.520000	0.002264	0.000277	-0.000609
1.530000	0.002582	-3.854300E-5	-0.000290
1.540000	0.002901	-3.854300E-5	-0.000928
1.550000	0.002264	-0.000354	-0.000290
1.560000	0.002582	-0.000670	-0.000290
1.570000	0.002582	0.000593	2.840100E-5
1.580000	0.002582	0.000593	-0.000290
1.590000	0.002901	0.000593	-0.000290
1.600000	0.002901	0.000277	-0.000290
1.610000	0.002901	0.000593	2.840100E-5
1.620000	0.002582	-3.854300E-5	-0.000290
1.630000	0.003219	-3.854300E-5	-0.000290
1.640000	0.002264	0.000277	-0.000290
1.650000	0.002901	0.000277	-0.000290
1.660000	0.002264	0.000593	2.840100E-5
1.670000	0.001945	-3.854300E-5	-0.000290
1.680000	0.002582	0.000593	-0.000609
1.690000	0.002264	-0.000354	-0.000609
1.700000	0.003219	0.000277	-0.000290
1.710000	0.002582	0.000277	0.000347
1.720000	0.002582	0.000277	-0.001247
1.730000	0.002582	0.000277	-0.000290
1.740000	0.002582	-0.000354	-0.000609
1.750000	0.002264	-3.854300E-5	-0.000609
1.760000	0.003219	-3.854300E-5	-0.000290
1.770000	0.001945	-3.854300E-5	-0.000928
1.780000	0.003219	0.000277	2.840100E-5
1.790000	0.002582	0.000277	-0.001247
1.800000	0.002901	0.000277	-0.000290
1.810000	0.002582	0.000909	0.000347
1.820000	0.002901	-3.854300E-5	-0.000928
1.830000	0.002901	0.000277	-0.000609
1.840000	0.002582	0.000277	-0.000609
1.850000	0.002582	-3.854300E-5	-0.000609
1.860000	0.002582	-3.854300E-5	-0.000290
1.870000	0.002582	-0.000670	-0.000928
1.880000	0.002582	-3.854300E-5	-0.000290
1.890000	0.002901	0.000277	-0.000290
1.900000	0.002582	0.000277	-0.000609
1.910000	0.002582	-3.854300E-5	-0.000609
1.920000	0.002582	-3.854300E-5	-0.000609
1.930000	0.002901	-3.854300E-5	-0.000290
1.940000	0.002901	0.001541	0.000666
1.950000	0.003219	-3.854300E-5	0.000347
1.960000	0.002264	-0.000670	-0.000290
1.970000	0.002901	-0.000354	-0.000928
1.980000	0.002582	-3.854300E-5	-0.000928
1.990000	0.002901	-3.854300E-5	-0.000290
2.000000	0.002901	0.000593	0.000347
2.010000	0.002901	0.000277	2.840100E-5
2.020000	0.002264	-3.854300E-5	-0.000928
2.030000	0.002901	-3.854300E-5	2.840100E-5
2.040000	0.002582	-0.000354	-0.000928
2.050000	0.002582	0.000277	2.840100E-5
2.060000	0.002582	0.000909	2.840100E-5
2.070000	0.002582	-0.000354	-0.001247
2.080000	0.002901	0.000277	0.000347
2.090000	0.003219	0.000593	2.840100E-5
2.100000	0.002582	-3.854300E-5	-0.000290
2.110000	0.002901	0.000277	-0.000290
2.120000	0.003538	0.000909	2.840100E-5
2.130000	0.002901	-3.854300E-5	-0.000290
2.140000	0.002264	0.000277	-0.000290
2.150000	0.002901	-3.854300E-5	2.840100E-5
2.160000	0.002264	-3.854300E-5	-0.000928
2.170000	0.002582	0.000277	-0.000290
2.180000	0.002264	0.000277	-0.000290
2.190000	0.001945	-0.000354	-0.000609
2.200000	0.002582	0.000593	2.840100E-5
2.210000	0.003219	0.000593	-0.000290
2.220000	0.002582	-3.854300E-5	-0.000290
2.230000	0.003219	0.000909	2.840100E-5
2.240000	0.002582	-0.000670	-0.000609
2.250000	0.002582	-3.854300E-5	2.840100E-5
2.260000	0.003219	0.000593	-0.000290
2.270000	0.002901	0.000277	0.000347
2.280000	0.003219	-0.000670	-0.000290
2.290000	0.002264	0.000593	-0.000290
2.300000	0.002582	-0.000354	-0.000290
2.310000	0.002582	-3.854300E-5	-0.000290
2.320000	0.002901	0.000909	-0.000609
2.330000	0.002582	-0.000354	-0.000928
2.340000	0.002264	-0.000354	-0.000609
2.350000	0.002582	0.000277	2.840100E-5
2.360000	0.002264	-3.854300E-5	-0.000928
2.370000	0.002582	0.001225	0.000347
2.380000	0.002582	0.000593	-0.000290
2.390000	0.002582	0.000909	2.840100E-5
2.400000	0.003538	0.000593	-0.000290
2.410000	0.002901	0.000909	-0.000290
2.420000	0.002582	0.000277	2.840100E-5
2.430000	0.002582	-3.854300E-5	-0.000609
2.440000	0.002264	0.000277	-0.000609
2.450000	0.002264	-3.854300E-5	-0.000290
2.460000	0.002582	0.000909	0.000347
2.470000	0.002582	-0.000354	-0.001247
2.480000	0.002901	0.000593	2.840100E-5
2.490000	0.002582	0.000277	-0.000928
2.500000	0.002582	-3.854300E-5	-0.000609
2.510000	0.002264	-3.854300E-5	-0.000290
2.520000	0.001945	-0.000354	-0.000609
2.530000	0.002901	0.000593	-0.000609
2.540000	0.002582	0.000277	2.840100E-5
2.550000	0.002582	0.000277	2.840100E-5
2.560000	0.002264	-3.854300E-5	-0.000609
2.570000	0.002901	0.000277	2.840100E-5
2.580000	0.002582	0.000277	0.000347
2.590000	0.002582	-3.854300E-5	-0.000609
2.600000	0.002901	0.000593	0.000347
2.610000	0.002264	-3.854300E-5	-0.000928
2.620000	0.002901	-3.854300E-5	2.840100E-5
2.630000	0.002582	0.000277	-0.001247
2.640000	0.001945	0.000277	-0.000928
2.650000	0.002582	0.000593	2.840100E-5
2.660000	0.001945	-0.000354	-0.001247
2.670000	0.002901	-0.000354	-0.000928
2.680000	0.002582	-3.854300E-5	2.840100E-5
2.690000	0.002582	-3.854300E-5	-0.000609
2.700000	0.001945	-0.000354	-0.000290
2.710000	0.002582	-3.854300E-5	-0.000290
2.720000	0.002264	0.000593	-0.000928
2.730000	0.001945	-3.854300E-5	-0.000290
2.740000	0.002901	0.000909	-0.000290
2.750000	0.003219	0.000277	-0.000609
2.760000	0.002901	-3.854300E-5	-0.000928
2.770000	0.003219	0.000593	0.000347
2.780000	0.002582	-3.854300E-5	0.000347
2.790000	0.003219	0.000593	-0.000609
2.800000	0.002582	-3.854300E-5	-0.000609
2.810000	0.001945	-0.000354	-0.001247
2.820000	0.002264	-3.854300E-5	2.840100E-5
2.830000	0.001945	-3.854300E-5	-0.000609
2.840000	0.002264	-0.000354	-0.000609
2.850000	0.002582	-3.854300E-5	-0.000609
2.860000	0.001945	-0.000670	-0.000928
2.870000	0.002901	0.000277	-0.000609
2.880000	0.002582	-0.000354	-0.000609
2.890000	0.002264	-0.000354	-0.000928
2.900000	0.002582	-3.854300E-5	-0.000290
2.910000	0.002582	-3.854300E-5	-0.000609
2.920000	0.002264	-3.854300E-5	2.840100E-5
2.930000	0.002901	-3.854300E-5	2.840100E-5
2.940000	0.002582	-0.000354	-0.000609
2.950000	0.002264	-0.000354	-0.000290
2.960000	0.002582	-3.854300E-5	-0.000928
2.970000	0.002582	-3.854300E-5	-0.000609
2.980000	0.002582	-0.000354	-0.000609
2.990000	0.002582	0.000277	-0.000609
3.000000	0.001945	-0.000354	-0.000290
3.010000	0.002582	0.000593	-0.000290
3.020000	0.002901	-3.854300E-5	-0.000290
3.030000	0.002901	0.000277	-0.000609
3.040000	0.003219	-3.854300E-5	-0.000928
3.050000	0.002901	0.000909	2.840100E-5
3.060000	0.001945	-3.854300E-5	-0.000928
3.070000	0.002582	-3.854300E-5	-0.000609
3.080000	0.001626	-3.854300E-5	-0.001247
3.090000	0.001626	-3.854300E-5	-0.000609
3.100000	0.002901	-3.854300E-5	-0.000609
3.110000	0.002901	0.000277	-0.000290
3.120000	0.002264	-0.000354	-0.000609
3.130000	0.002582	-3.854300E-5	-0.000609
3.140000	0.002582	-3.854300E-5	-0.001566
3.150000	0.002582	0.000909	-0.000609
3.160000	0.001945	-0.000354	-0.000290
3.170000	0.002264	0.000593	-0.000290
3.180000	0.002582	-0.000354	-0.000609
3.190000	0.001945	-0.000354	-0.000928
3.200000	0.002901	0.000277	-0.000609
3.210000	0.001945	-0.000354	-0.000928
3.220000	0.002582	0.000593	-0.000928
3.230000	0.002901	0.000277	-0.000609
3.240000	0.001945	-3.854300E-5	-0.000290
3.250000	0.002582	-3.854300E-5	0.000347
3.260000	0.002582	-3.854300E-5	-0.000609
3.270000	0.001945	0.000277	-0.000609
3.280000	0.002582	-0.000354	2.840100E-5
3.290000	0.002582	0.000593	-0.000290
3.300000	0.002264	-0.000354	-0.000609
3.310000	0.001945	-0.000354	-0.001566
3.320000	0.002582	-0.000354	-0.000928
3.330000	0.002264	-0.000354	2.840100E-5
3.340000	0.002264	-3.854300E-5	-0.000609
3.350000	0.002901	0.000277	-0.000290
3.360000	0.002582	-3.854300E-5	-0.000928
3.370000	0.002901	0.000277	-0.000609
3.380000	0.002264	-3.854300E-5	-0.000290
3.390000	0.002264	-0.000354	-0.000290
3.400000	0.002582	-3.854300E-5	-0.000290
3.410000	0.002582	-0.000354	-0.000928
3.420000	0.002901	-0.000354	-0.000290
3.430000	0.002264	-3.854300E-5	-0.000290
3.440000	0.001945	-0.000354	-0.000928
3.450000	0.001945	-0.000354	-0.000928
3.460000	0.002264	-0.000354	-0.000928
3.470000	0.002901	-3.854300E-5	-0.000609
3.480000	0.002264	0.000277	-0.000290
3.490000	0.002582	-3.854300E-5	-0.000609
3.500000	0.002901	-3.854300E-5	-0.000609
3.510000	0.001945	-0.000354	-0.000609
3.520000	0.002264	0.000277	-0.000928
3.530000	0.003219	0.001225	2.840100E-5
3.540000	0.002264	-0.000354	-0.001247
3.550000	0.002582	-3.854300E-5	-0.000928
3.560000	0.002582	-0.000354	-0.000928
3.570000	0.002264	-3.854300E-5	-0.000928
3.580000	0.003219	0.000593	2.840100E-5
3.590000	0.002582	-0.000670	-0.002203
3.600000	0.002582	-3.854300E-5	-0.000609
3.610000	0.002582	-0.000354	-0.001566
3.620000	0.002901	-0.000354	-0.000928
3.630000	0.002582	-3.854300E-5	-0.000290
3.640000	0.002264	-3.854300E-5	-0.000928
3.650000	0.002582	-3.854300E-5	-0.000928
3.660000	0.002901	-3.854300E-5	-0.000609
3.670000	0.002582	0.000593	-0.000290
3.680000	0.002582	0.000277	-0.000290
3.690000	0.002582	-0.000354	-0.000609
3.700000	0.002582	-0.000354	-0.000290
3.710000	0.001945	-3.854300E-5	-0.000609
3.720000	0.002901	0.000277	-0.000290
3.730000	0.002264	-3.854300E-5	-0.000609
3.740000	0.001308	-0.000670	-0.000928
3.750000	0.002264	-0.000354	-0.001566
3.760000	0.002582	-0.000354	-0.000609
3.770000	0.002582	-3.854300E-5	-0.000290
3.780000	0.002264	-0.000354	-0.000290
3.790000	0.002582	-0.000354	-0.000290
3.800000	0.002582	-3.854300E-5	-0.000609
3.810000	0.002582	-3.854300E-5	-0.000609
3.820000	0.002582	0.000593	2.840100E-5
3.830000	0.001945	0.000593	-0.000609
3.840000	0.002582	-3.854300E-5	-0.000609
3.850000	0.002901	0.000593	-0.000609
3.860000	0.002264	0.000277	0.000347
3.870000	0.002582	0.000277	-0.000609
3.880000	0.003219	-3.854300E-5	2.840100E-5
3.890000	0.001945	-0.000354	-0.000928
3.900000	0.003538	0.000593	-0.000290
3.910000	0.002901	0.000593	2.840100E-5
3.920000	0.002582	-3.854300E-5	-0.000609
3.930000	0.002582	0.000277	-0.000290
3.940000	0.002264	-3.854300E-5	-0.000928
3.950000	0.002901	0.000593	2.840100E-5
3.960000	0.002264	-3.854300E-5	-0.000609
3.970000	0.002582	-0.000670	-0.000609
3.980000	0.002264	0.000277	-0.000609
3.990000	0.002582	-3.854300E-5	-0.000928
4.000000	0.002901	-3.854300E-5	-0.001566
4.010000	0.002901	-3.854300E-5	2.840100E-5
4.020000	0.003219	-3.854300E-5	-0.000290
4.030000	0.001945	0.000593	-0.000290
4.040000	0.002901	-0.000670	-0.000609
4.050000	0.002582	0.000277	-0.000290
4.060000	0.002264	-3.854300E-5	2.840100E-5
4.070000	0.002901	-3.854300E-5	-0.000290
4.080000	0.003538	-0.000354	-0.000928
4.090000	0.002901	0.000277	-0.000928
4.100000	0.002901	-3.854300E-5	-0.000609
4.110000	0.003219	0.000593	0.000666
4.120000	0.002582	0.000909	-0.000609
4.130000	0.003538	-0.000354	2.840100E-5
4.140000	0.003219	0.000593	-0.000609
4.150000	0.003219	0.000593	-0.000290
4.160000	0.003219	0.000593	0.000666
4.170000	0.003538	-0.000354	-0.000609
4.180000	0.003538	0.000909	2.840100E-5
4.190000	0.002582	-0.000354	-0.001566
4.200000	0.003219	0.000277	2.840100E-5
4.210000	0.003538	-3.854300E-5	-0.000290
4.220000	0.003538	-0.000354	-0.000290
4.230000	0.003219	-0.000354	-0.000928
4.240000	0.003857	-3.854300E-5	-0.000928
4.250000	0.004494	-0.000670	-0.001566
4.260000	0.004175	-0.000354	-0.001247
4.270000	0.004494	-0.000670	-0.000928
4.280000	0.006406	-0.000670	-0.001247
4.290000	0.006725	-0.001618	-0.001247
4.300000	0.008318	-0.000670	-0.001247
4.310000	0.006406	-0.000986	-0.002203
4.320000	0.006725	-0.001618	-0.002203
4.330000	0.006406	-0.000986	-0.002841
4.340000	0.005450	-0.001302	-0.002203
4.350000	0.006725	-0.002250	-0.002203
4.360000	0.007043	-0.001934	-0.001884
4.370000	0.009911	-0.001934	-0.003160
4.380000	0.009592	-0.002250	-0.002841
4.390000	0.011186	-0.001934	-0.002522
4.400000	0.013735	-0.001618	-0.001247
4.410000	0.016284	-0.001934	-0.001884
4.420000	0.014053	-0.002250	-0.002841
4.430000	0.019152	-0.003197	-0.003160
4.440000	0.019152	-0.003197	-0.003478
4.450000	0.019470	-0.002881	-0.003478
4.460000	0.016602	-0.003829	-0.004435
4.470000	0.020745	-0.003829	-0.004754
4.480000	0.021701	-0.004777	-0.004435
4.490000	0.027436	-0.004145	-0.004754
4.500000	0.029030	-0.004777	-0.004754
4.510000	0.027118	-0.006040	-0.006029
4.520000	0.028711	-0.006356	-0.004754
4.530000	0.028074	-0.006356	-0.006029
4.540000	0.036358	-0.006988	-0.006348
4.550000	0.032535	-0.007304	-0.006667
4.560000	0.038907	-0.008567	-0.007623
4.570000	0.037633	-0.008567	-0.010173
4.580000	0.034128	-0.010147	-0.011130
4.590000	0.038270	-0.010463	-0.011130
4.600000	0.044006	-0.010463	-0.011130
4.610000	0.047192	-0.012042	-0.015274
4.620000	0.044324	-0.013306	-0.016231
4.630000	0.044643	-0.013621	-0.016550
4.640000	0.045599	-0.014885	-0.019100
4.650000	0.051016	-0.015517	-0.020057
4.660000	0.053884	-0.017096	-0.020694
4.670000	0.054840	-0.018360	-0.022607
4.680000	0.059619	-0.018360	-0.023563
4.690000	0.055477	-0.018991	-0.024201
4.700000	0.057389	-0.020887	-0.026433
4.710000	0.058345	-0.021834	-0.028346
4.720000	0.058982	-0.023414	-0.029940
4.730000	0.066311	-0.024677	-0.030258
4.740000	0.065355	-0.025941	-0.031852
4.750000	0.063124	-0.027204	-0.034084
4.760000	0.066311	-0.027520	-0.034722
4.770000	0.070135	-0.029415	-0.035040
4.780000	0.070772	-0.030047	-0.035678
4.790000	0.070135	-0.032574	-0.035359
4.800000	0.067585	-0.033206	-0.034722
4.810000	0.072684	-0.035733	-0.033765
4.820000	0.071728	-0.036049	-0.031852
4.830000	0.074914	-0.037628	-0.035997
4.840000	0.075870	-0.039208	-0.039185
4.850000	0.078419	-0.041103	-0.042692
4.860000	0.078419	-0.043314	-0.047474
4.870000	0.080650	-0.043630	-0.049706
4.880000	0.081606	-0.045210	-0.051300
4.890000	0.081924	-0.046789	-0.053850
4.900000	0.084155	-0.048052	-0.055444
4.910000	0.087660	-0.049632	-0.057038
4.920000	0.087023	-0.051211	-0.057995
4.930000	0.088934	-0.052791	-0.059270
4.940000	0.086067	-0.053738	-0.059589
4.950000	0.091165	-0.055002	-0.059589
4.960000	0.088297	-0.055318	-0.060226
4.970000	0.092440	-0.055949	-0.059908
4.980000	0.087660	-0.058161	-0.060545
4.990000	0.094033	-0.059108	-0.059589
5.000000	0.096901	-0.060056	-0.060226
5.010000	0.094351	-0.061319	-0.060545
5.020000	0.091802	-0.061951	-0.060545
5.030000	0.094989	-0.062899	-0.060226
5.040000	0.093714	-0.063215	-0.060226
5.050000	0.096901	-0.064162	-0.059589
5.060000	0.096901	-0.065426	-0.059908
5.070000	0.098812	-0.066058	-0.058951
5.080000	0.094033	-0.066374	-0.059270
5.090000	0.103592	-0.067321	-0.058951
5.100000	0.101680	-0.067953	-0.058632
5.110000	0.097856	-0.068585	-0.059908
5.120000	0.098812	-0.069532	-0.058951
5.130000	0.101999	-0.069532	-0.057676
5.140000	0.098812	-0.069848	-0.057995
5.150000	0.099450	-0.070480	-0.058313
5.160000	0.103273	-0.071112	-0.058313
5.170000	0.099450	-0.072059	-0.058313
5.180000	0.102636	-0.071112	-0.057676
5.190000	0.103911	-0.072691	-0.057676
5.200000	0.104229	-0.072375	-0.057676
5.210000	0.105504	-0.072691	-0.057995
5.220000	0.101362	-0.073323	-0.057995
5.230000	0.100406	-0.073323	-0.057357
5.240000	0.110284	-0.073639	-0.057676
5.250000	0.106141	-0.074902	-0.057676
5.260000	0.106778	-0.074271	-0.057676
5.270000	0.106141	-0.074902	-0.058313
5.280000	0.104548	-0.075218	-0.057995
5.290000	0.106460	-0.074902	-0.057357
5.300000	0.105823	-0.075850	-0.057357
5.310000	0.105823	-0.075850	-0.057357
5.320000	0.109965	-0.076166	-0.057357
5.330000	0.110602	-0.076166	-0.057676
5.340000	0.104548	-0.075218	-0.057676
5.350000	0.109646	-0.076166	-0.057357
5.360000	0.107734	-0.076166	-0.057676
5.370000	0.107734	-0.076482	-0.057676
5.380000	0.106141	-0.076166	-0.057357
5.390000	0.112833	-0.075850	-0.057038
5.400000	0.109328	-0.076482	-0.057357
5.410000	0.108053	-0.076482	-0.057676
5.420000	0.113151	-0.076482	-0.057995
5.430000	0.108690	-0.076798	-0.057676
5.440000	0.106141	-0.077429	-0.057995
5.450000	0.108690	-0.076482	-0.057038
5.460000	0.107416	-0.077114	-0.057357
5.470000	0.110284	-0.076482	-0.057676
5.480000	0.111877	-0.077114	-0.057038
5.490000	0.108690	-0.077745	-0.056719
5.500000	0.107734	-0.076798	-0.056719
5.510000	0.108372	-0.077745	-0.057357
5.520000	0.113151	-0.078377	-0.057038
5.530000	0.110602	-0.077745	-0.057357
5.540000	0.110284	-0.077114	-0.056719
5.550000	0.109009	-0.077745	-0.057038
5.560000	0.109328	-0.077429	-0.057038
5.570000	0.109009	-0.077745	-0.057676
5.580000	0.112833	-0.077114	-0.057676
5.590000	0.111239	-0.078061	-0.057038
5.600000	0.107097	-0.077745	-0.057676
5.610000	0.105504	-0.077429	-0.057357
5.620000	0.109009	-0.077745	-0.057676
5.630000	0.110921	-0.076798	-0.056082
5.640000	0.110602	-0.077745	-0.057357
5.650000	0.110284	-0.078061	-0.057357
5.660000	0.110284	-0.078061	-0.058313
5.670000	0.107416	-0.078061	-0.057357
5.680000	0.110284	-0.077745	-0.057995
5.690000	0.105823	-0.078061	-0.057357
5.700000	0.109646	-0.077745	-0.057995
5.710000	0.111558	-0.078061	-0.058313
5.720000	0.112514	-0.077429	-0.057995
5.730000	0.112514	-0.078061	-0.057676
5.740000	0.108690	-0.078377	-0.057995
5.750000	0.113151	-0.077429	-0.057995
5.760000	0.109328	-0.077429	-0.057676
5.770000	0.105504	-0.078377	-0.057995
5.780000	0.109646	-0.077745	-0.057357
5.790000	0.105504	-0.078693	-0.057995
5.800000	0.107097	-0.078061	-0.057357
5.810000	0.108372	-0.078693	-0.058313
5.820000	0.107734	-0.078377	-0.057995
5.830000	0.105185	-0.078061	-0.057995
5.840000	0.109328	-0.078061	-0.057676
5.850000	0.107416	-0.078693	-0.057995
5.860000	0.107734	-0.078693	-0.058313
5.870000	0.105504	-0.078061	-0.057357
5.880000	0.105504	-0.078061	-0.057676
5.890000	0.105823	-0.078693	-0.057995
5.900000	0.106460	-0.078693	-0.057995
5.910000	0.103273	-0.078377	-0.057676
5.920000	0.103911	-0.078061	-0.057676
5.930000	0.102636	-0.079009	-0.058313
5.940000	0.107416	-0.079009	-0.058951
5.950000	0.107416	-0.078693	-0.058632
5.960000	0.101999	-0.078693	-0.057995
5.970000	0.101680	-0.078377	-0.058313
5.980000	0.103592	-0.078061	-0.058632
5.990000	0.104229	-0.079325	-0.059270
6.000000	0.105504	-0.079325	-0.058951
6.010000	0.105185	-0.078377	-0.058951
6.020000	0.106460	-0.079325	-0.059270
6.030000	0.105185	-0.079325	-0.058951
6.040000	0.098175	-0.079641	-0.059908
6.050000	0.102317	-0.079009	-0.059589
6.060000	0.100724	-0.079009	-0.059270
6.070000	0.104548	-0.078693	-0.059270
6.080000	0.099768	-0.079009	-0.059908
6.090000	0.103592	-0.078693	-0.060226
6.100000	0.102955	-0.078693	-0.059589
6.110000	0.100087	-0.079325	-0.060226
6.120000	0.100724	-0.079325	-0.059270
6.130000	0.101362	-0.079009	-0.059589
6.140000	0.103592	-0.079325	-0.059908
6.150000	0.098494	-0.079325	-0.060226
6.160000	0.101043	-0.079325	-0.059908
6.170000	0.101043	-0.079009	-0.059589
6.180000	0.100724	-0.079956	-0.059908
6.190000	0.096263	-0.079325	-0.060226
6.200000	0.099768	-0.079325	-0.059908
6.210000	0.097538	-0.079956	-0.060545
6.220000	0.100087	-0.079325	-0.059908
6.230000	0.100087	-0.079641	-0.060545
6.240000	0.097538	-0.079325	-0.060545
6.250000	0.101362	-0.079956	-0.059908
6.260000	0.099131	-0.079641	-0.060226
6.270000	0.097219	-0.079641	-0.059908
6.280000	0.098812	-0.079956	-0.060545
6.290000	0.096582	-0.079325	-0.061183
6.300000	0.101999	-0.079009	-0.059908
6.310000	0.100406	-0.079641	-0.060864
6.320000	0.099131	-0.080272	-0.060226
6.330000	0.098494	-0.079956	-0.061502
6.340000	0.098175	-0.079325	-0.060545
6.350000	0.097538	-0.079325	-0.059908
6.360000	0.098175	-0.079956	-0.060545
6.370000	0.099450	-0.079325	-0.060226
6.380000	0.098175	-0.079641	-0.060864
6.390000	0.097856	-0.079641	-0.060864
6.400000	0.096582	-0.079641	-0.060226
6.410000	0.096901	-0.080588	-0.060545
6.420000	0.096263	-0.080272	-0.060545
6.430000	0.097856	-0.080272	-0.060545
6.440000	0.095626	-0.079956	-0.060864
6.450000	0.094989	-0.080272	-0.059908
6.460000	0.094033	-0.079641	-0.060864
6.470000	0.094033	-0.079641	-0.061183
6.480000	0.095307	-0.080272	-0.061183
6.490000	0.092758	-0.080272	-0.061502
6.500000	0.092440	-0.079641	-0.060864
6.510000	0.089572	-0.080272	-0.061502
6.520000	0.094033	-0.080588	-0.062458
6.530000	0.090528	-0.080272	-0.062139
6.540000	0.087023	-0.080272	-0.062458
6.550000	0.088934	-0.080588	-0.061502
6.560000	0.086385	-0.080272	-0.062777
6.570000	0.085111	-0.080588	-0.063414
6.580000	0.083836	-0.080588	-0.063733
6.590000	0.083836	-0.079641	-0.063096
6.600000	0.081606	-0.080588	-0.064052
6.610000	0.081287	-0.080904	-0.064690
6.620000	0.076507	-0.080904	-0.065008
6.630000	0.077145	-0.080588	-0.065008
6.640000	0.077463	-0.080588	-0.065327
6.650000	0.075233	-0.081220	-0.065646
6.660000	0.074277	-0.081220	-0.066284
6.670000	0.073321	-0.080904	-0.066921
6.680000	0.071090	-0.080588	-0.065965
6.690000	0.071409	-0.081220	-0.065965
6.700000	0.069816	-0.080904	-0.063733
6.710000	0.069816	-0.080904	-0.061820
6.720000	0.068223	-0.080904	-0.060545
6.730000	0.064718	-0.080904	-0.054488
6.740000	0.066629	-0.080272	-0.050981
6.750000	0.065355	-0.080904	-0.048430
6.760000	0.063762	-0.080588	-0.047155
6.770000	0.062168	-0.079641	-0.045561
6.780000	0.062168	-0.079325	-0.044605
6.790000	0.059301	-0.078693	-0.042373
6.800000	0.058026	-0.077429	-0.040460
6.810000	0.057389	-0.076798	-0.038866
6.820000	0.056433	-0.075534	-0.037591
6.830000	0.055796	-0.073955	-0.036953
6.840000	0.055477	-0.073007	-0.035997
6.850000	0.052928	-0.071428	-0.034403
6.860000	0.052928	-0.070796	-0.033446
6.870000	0.051016	-0.068585	-0.032490
6.880000	0.049104	-0.067637	-0.031534
6.890000	0.049104	-0.065426	-0.030258
6.900000	0.047511	-0.064162	-0.029302
6.910000	0.045599	-0.061951	-0.028664
6.920000	0.046555	-0.060688	-0.027708
6.930000	0.043687	-0.059424	-0.026751
6.940000	0.042731	-0.057213	-0.025795
6.950000	0.041775	-0.055949	-0.025157
6.960000	0.039545	-0.054370	-0.025157
6.970000	0.039863	-0.052791	-0.022926
6.980000	0.038589	-0.050580	-0.021332
6.990000	0.036677	-0.048684	-0.021013
7.000000	0.037633	-0.046789	-0.020057
7.010000	0.035721	-0.044262	-0.019100
7.020000	0.035084	-0.042682	-0.018144
7.030000	0.034128	-0.041103	-0.017506
7.040000	0.032853	-0.038892	-0.016231
7.050000	0.031260	-0.036997	-0.015593
7.060000	0.030623	-0.035417	-0.015274
7.070000	0.029985	-0.033522	-0.014318
7.080000	0.029030	-0.031627	-0.013043
7.090000	0.027755	-0.030363	-0.011767
7.100000	0.027118	-0.027836	-0.010173
7.110000	0.026162	-0.026573	-0.010492
7.120000	0.025524	-0.024361	-0.009217
7.130000	0.024887	-0.021834	-0.008261
7.140000	0.023613	-0.020571	-0.007304
7.150000	0.022975	-0.018991	-0.007304
7.160000	0.021701	-0.016780	-0.006029
7.170000	0.021382	-0.015833	-0.005073
7.180000	0.021063	-0.013937	-0.005073
7.190000	0.019152	-0.012990	-0.004754
7.200000	0.018514	-0.011094	-0.004435
7.210000	0.018196	-0.010147	-0.004116
7.220000	0.017877	-0.009199	-0.003478
7.230000	0.017240	-0.008251	-0.004116
7.240000	0.015965	-0.007620	-0.004754
7.250000	0.015009	-0.006356	-0.003797
7.260000	0.014053	-0.005724	-0.003797
7.270000	0.014053	-0.005409	-0.004116
7.280000	0.014053	-0.004145	-0.002522
7.290000	0.012460	-0.004461	-0.002522
7.300000	0.012460	-0.003513	-0.002841
7.310000	0.011504	-0.002566	-0.003160
7.320000	0.010867	-0.002881	-0.002522
7.330000	0.009274	-0.002881	-0.002522
7.340000	0.010230	-0.002881	-0.002203
7.350000	0.009274	-0.002881	-0.002522
7.360000	0.009274	-0.002566	-0.002203
7.370000	0.008318	-0.002250	-0.002203
7.380000	0.007680	-0.002566	-0.002203
7.390000	0.007043	-0.002250	-0.002203
7.400000	0.007043	-0.001934	-0.002522
7.410000	0.006087	-0.002250	-0.002841
7.420000	0.005450	-0.002250	-0.002841
7.430000	0.004175	-0.001934	-0.002203
7.440000	0.005131	-0.001934	-0.002841
7.450000	0.004175	-0.001934	-0.002203
7.460000	0.003857	-0.001618	-0.002203
7.470000	0.003219	-0.000670	-0.000928
7.480000	0.002582	-0.001618	-0.001566
7.490000	0.003857	-0.001618	-0.001247
7.500000	0.003219	-0.000986	-0.001247
7.510000	0.003538	-0.000986	-0.001247
7.520000	0.003219	-0.000670	-0.000928
7.530000	0.002582	-0.000670	-0.000928
7.540000	0.002264	-0.000354	-0.000609
7.550000	0.002582	-0.000354	-0.000290
7.560000	0.002901	-0.000354	2.840100E-5
7.570000	0.002901	-0.000670	-0.000290
7.580000	0.002582	-0.000354	-0.000290
7.590000	0.002901	-0.000670	-0.001247
7.600000	0.003219	0.000277	2.840100E-5
7.610000	0.003538	0.000277	-0.000609
7.620000	0.002901	0.000277	-0.000290
7.630000	0.002901	-3.854300E-5	-0.001247
7.640000	0.002582	-3.854300E-5	-0.000928
7.650000	0.002901	0.000593	-0.000609
7.660000	0.002582	-3.854300E-5	-0.000290
7.670000	0.002901	-0.000354	-0.000609
7.680000	0.002264	-0.000354	-0.001247
7.690000	0.002901	-3.854300E-5	-0.000609
7.700000	0.002901	-3.854300E-5	-0.000290
7.710000	0.002582	0.000277	-0.000290
7.720000	0.002582	-0.000670	-0.000928
7.730000	0.002582	-0.000354	-0.000928
7.740000	0.002901	-3.854300E-5	-0.000609
7.750000	0.002901	-3.854300E-5	-0.000290
7.760000	0.002582	-0.000354	2.840100E-5
7.770000	0.003538	-3.854300E-5	-0.000609
7.780000	0.002582	-0.000354	-0.000609
7.790000	0.002582	-3.854300E-5	-0.000290
7.800000	0.002264	0.000277	-0.000290
7.810000	0.002582	-3.854300E-5	-0.000609
7.820000	0.002901	0.000277	-0.000928
7.830000	0.002264	0.000277	-0.000928
7.840000	0.002264	-0.000670	-0.000928
7.850000	0.002901	0.000593	0.000347
7.860000	0.003219	-0.000670	-0.000609
7.870000	0.003219	-0.000354	-0.000928
7.880000	0.003219	-3.854300E-5	-0.000290
7.890000	0.002582	0.000593	-0.000290
7.900000	0.003219	0.000593	-0.000290
7.910000	0.002264	-0.000354	-0.000609
7.920000	0.002264	0.000277	-0.000609
7.930000	0.002901	0.000277	2.840100E-5
7.940000	0.002264	0.000593	-0.000290
7.950000	0.003219	-3.854300E-5	-0.000290
7.960000	0.002582	-3.854300E-5	-0.000928
7.970000	0.003219	-3.854300E-5	-0.000609
7.980000	0.002264	-3.854300E-5	-0.000928
7.990000	0.002901	-3.854300E-5	-0.000609
8.000000	0.002901	0.000277	-0.000609
8.010000	0.002582	0.000277	-0.001566
8.020000	0.002582	-3.854300E-5	-0.000609
8.030000	0.002582	-3.854300E-5	-0.000609
8.040000	0.003219	0.000277	-0.000290
8.050000	0.002582	-0.000354	-0.000290
8.060000	0.002582	-0.000354	-0.000290
8.070000	0.002901	0.000277	-0.000928
8.080000	0.002264	-3.854300E-5	-0.000928
8.090000	0.002264	0.000277	-0.000290
8.100000	0.002901	-0.000354	2.840100E-5
8.110000	0.002264	-0.000354	-0.000928
8.120000	0.002582	-3.854300E-5	-0.000928
8.130000	0.003538	0.000277	2.840100E-5
8.140000	0.002582	0.000593	-0.000609
8.150000	0.002582	-3.854300E-5	-0.000609
8.160000	0.003219	-3.854300E-5	-0.000609
8.170000	0.002264	-0.000354	-0.000928
8.180000	0.002264	-0.000670	-0.000928
8.190000	0.002582	0.000277	-0.000290
8.200000	0.002901	0.000593	-0.000290
8.210000	0.002582	-3.854300E-5	-0.001247
8.220000	0.002264	-0.000354	0.000347
8.230000	0.002264	-3.854300E-5	2.840100E-5
8.240000	0.002901	0.000277	2.840100E-5
8.250000	0.003538	-0.000354	0.000347
8.260000	0.002582	-0.000354	-0.000290
8.270000	0.003219	-3.854300E-5	-0.000609
8.280000	0.002582	0.000593	-0.000609
8.290000	0.003219	0.000593	-0.000290
8.300000	0.002264	0.000277	-0.000609
8.310000	0.001945	0.000277	-0.000928
8.320000	0.002901	0.000593	-0.000290
8.330000	0.002582	-0.000670	-0.000290
8.340000	0.002582	-3.854300E-5	-0.000928
8.350000	0.002582	0.000277	2.840100E-5
8.360000	0.002582	-3.854300E-5	2.840100E-5
8.370000	0.002582	-3.854300E-5	-0.000290
8.380000	0.002582	-0.000354	-0.000290
8.390000	0.003219	-0.000354	-0.001247
8.400000	0.002582	-0.000354	-0.000609
8.410000	0.002582	-0.000354	-0.001566
8.420000	0.002582	0.000277	-0.000609
8.430000	0.002901	-3.854300E-5	-0.000609
8.440000	0.001945	-0.000354	-0.000609
8.450000	0.003538	-0.000354	-0.000609
8.460000	0.003219	-3.854300E-5	-0.000290
8.470000	0.003219	-3.854300E-5	2.840100E-5
8.480000	0.002901	-3.854300E-5	-0.000609
8.490000	0.002901	-0.000354	-0.000928
8.500000	0.002264	-0.000354	-0.000609
8.510000	0.002901	-0.000986	-0.000928
8.520000	0.002582	-0.000354	2.840100E-5
8.530000	0.002264	-3.854300E-5	-0.000609
8.540000	0.002582	-0.000354	-0.000609
8.550000	0.002901	-3.854300E-5	2.840100E-5
8.560000	0.002264	-0.000354	-0.001247
8.570000	0.002901	-0.000354	-0.000609
8.580000	0.002264	-0.000354	-0.000290
8.590000	0.002582	0.000277	-0.001247
8.600000	0.002901	-3.854300E-5	-0.000609
8.610000	0.002582	-0.000354	-0.000290
8.620000	0.002582	0.000909	2.840100E-5
8.630000	0.002901	0.000277	-0.000609
8.640000	0.002264	-3.854300E-5	-0.000928
8.650000	0.002582	0.000593	-0.000290
8.660000	0.002264	-3.854300E-5	2.840100E-5
8.670000	0.002582	0.000593	-0.000290
8.680000	0.002264	0.000277	-0.000609
8.690000	0.001945	-3.854300E-5	-0.000609
8.700000	0.002901	0.001225	0.000347
8.710000	0.002264	-3.854300E-5	-0.000928
8.720000	0.002264	-0.000354	-0.000609
8.730000	0.001945	-0.000354	-0.000928
8.740000	0.002901	-0.000354	-0.000928
8.750000	0.002582	0.000593	-0.000290
8.760000	0.002582	0.000277	-0.000928
8.770000	0.002582	-0.000354	-0.000609
8.780000	0.002901	-0.000354	-0.000290
8.790000	0.002264	-0.000354	-0.001884
8.800000	0.002582	0.000593	-0.000290
8.810000	0.002264	-3.854300E-5	2.840100E-5
8.820000	0.002264	0.000593	2.840100E-5
8.830000	0.002264	-3.854300E-5	-0.000609
8.840000	0.002582	-0.000354	-0.000928
8.850000	0.002582	-3.854300E-5	-0.000290
8.860000	0.002264	-0.000354	-0.000928
8.870000	0.001945	0.000277	-0.000609
8.880000	0.002582	-3.854300E-5	-0.000928
8.890000	0.002582	-0.000354	-0.000609
8.900000	0.002264	0.000593	-0.000609
8.910000	0.002264	-0.000354	-0.001247
8.920000	0.002901	-3.854300E-5	-0.000928
8.930000	0.002582	-0.000354	2.840100E-5
8.940000	0.002582	-3.854300E-5	2.840100E-5
8.950000	0.002264	0.000593	-0.000290
8.960000	0.003219	-3.854300E-5	-0.000609
8.970000	0.002264	0.000593	-0.000928
8.980000	0.002901	0.000909	-0.000290
8.990000	0.001945	0.000277	2.840100E-5
9.000000	0.002582	-3.854300E-5	2.840100E-5
9.010000	0.002264	-3.854300E-5	-0.000290
9.020000	0.001945	0.000277	-0.000609
9.030000	0.001945	-3.854300E-5	-0.000928
9.040000	0.002264	-3.854300E-5	-0.000290
9.050000	0.002264	-3.854300E-5	-0.000609
9.060000	0.002582	0.000277	-0.000290
9.070000	0.002582	0.000277	-0.000609
9.080000	0.001945	-0.000354	-0.000609
9.090000	0.002264	-0.000354	-0.001566
9.100000	0.002264	-0.000354	-0.000290
9.110000	0.002901	-3.854300E-5	-0.000928
9.120000	0.002264	-3.854300E-5	-0.000290
9.130000	0.002582	-3.854300E-5	-0.000290
9.140000	0.002901	0.000277	-0.000609
9.150000	0.002582	-0.000354	-0.000290
9.160000	0.001945	-3.854300E-5	-0.000928
9.170000	0.002901	-3.854300E-5	-0.000609
9.180000	0.001945	0.000277	-0.000928
9.190000	0.002582	-3.854300E-5	-0.000609
9.200000	0.002582	0.000277	-0.000290
9.210000	0.002582	-0.000354	-0.001566
9.220000	0.002582	-3.854300E-5	-0.000609
9.230000	0.002901	0.000593	-0.000609
9.240000	0.001945	-3.854300E-5	-0.000290
9.250000	0.001945	0.000277	2.840100E-5
9.260000	0.003219	-0.000354	-0.000609
9.270000	0.002901	0.000277	-0.000290
9.280000	0.002901	0.000593	-0.000290
9.290000	0.002582	0.000277	-0.000290
9.300000	0.002264	0.000277	-0.000290
9.310000	0.002582	-0.000354	-0.000609
9.320000	0.002901	-3.854300E-5	0.000347
9.330000	0.002264	0.000593	-0.000609
9.340000	0.002264	0.000277	-0.000290
9.350000	0.002901	-0.000354	-0.000290
9.360000	0.001945	-0.000354	-0.000609
9.370000	0.002582	0.000277	-0.000290
9.380000	0.002582	-0.000670	-0.000928
9.390000	0.001626	-0.000354	-0.001566
9.400000	0.003219	0.000593	-0.000609
9.410000	0.002264	-0.000670	-0.001247
9.420000	0.002582	0.000277	-0.000290
9.430000	0.002901	0.000909	-0.000290
9.440000	0.002264	-0.000354	-0.000290
9.450000	0.002901	-3.854300E-5	-0.000928
9.460000	0.002582	-3.854300E-5	2.840100E-5
9.470000	0.002264	0.000277	0.000347
9.480000	0.002264	-3.854300E-5	-0.000290
9.490000	0.002264	-3.854300E-5	-0.000290
9.500000	0.002582	-0.000354	-0.000609
9.510000	0.002582	0.000277	-0.000609
9.520000	0.002582	-3.854300E-5	-0.000609
9.530000	0.002264	-3.854300E-5	-0.000609
9.540000	0.002582	0.000277	-0.000609
9.550000	0.001945	-3.854300E-5	2.840100E-5
9.560000	0.002582	0.000593	-0.000609
9.570000	0.002264	0.000277	-0.000290
9.580000	0.002264	-3.854300E-5	-0.000290
9.590000	0.002582	0.000277	-0.000609
9.600000	0.002264	0.000593	-0.000928
9.610000	0.002582	-0.000354	-0.000609
9.620000	0.003219	0.000277	-0.000290
9.630000	0.002582	-0.000354	-0.000290
9.640000	0.002901	-3.854300E-5	-0.001247
9.650000	0.002901	-3.854300E-5	-0.000290
9.660000	0.002264	-3.854300E-5	-0.000609
9.670000	0.002582	-0.000354	-0.000290
9.680000	0.002582	-0.000354	-0.000609
9.690000	0.002264	-0.000354	-0.000609
9.700000	0.002901	0.000277	2.840100E-5
9.710000	0.002264	-3.854300E-5	-0.000290
9.720000	0.002582	-3.854300E-5	-0.000290
9.730000	0.002582	0.000277	2.840100E-5
9.740000	0.002264	-0.000354	-0.000290
9.750000	0.002582	0.000593	-0.000290
9.760000	0.002582	0.000277	2.840100E-5
9.770000	0.002582	-3.854300E-5	-0.000609
9.780000	0.003219	0.000277	-0.000290
9.790000	0.003219	0.000277	-0.000928
9.800000	0.002582	0.000277	2.840100E-5
9.810000	0.002582	-3.854300E-5	-0.000609
9.820000	0.002901	-0.000354	-0.000609
9.830000	0.003219	-3.854300E-5	2.840100E-5
9.840000	0.002901	-3.854300E-5	-0.000928
9.850000	0.002901	0.000593	2.840100E-5
9.860000	0.002582	-0.000354	2.840100E-5
9.870000	0.003219	0.000277	2.840100E-5
9.880000	0.002582	-0.000670	-0.000609
9.890000	0.003219	0.000277	2.840100E-5
9.900000	0.002901	0.000277	-0.000609
9.910000	0.002264	-0.000354	-0.000609
9.920000	0.002901	0.000277	-0.000290
9.930000	0.002264	0.000277	-0.000928
9.940000	0.003219	0.000909	-0.000290
9.950000	0.002901	-3.854300E-5	2.840100E-5
9.960000	0.002901	-0.000354	-0.000928
9.970000	0.002901	-3.854300E-5	-0.000609
9.980000	0.002901	-0.000354	-0.000609
9.990000	0.002901	0.000593	2.840100E-5
10.000000	0.002901	0.000277	-0.000609
10.010000	0.002901	0.000909	-0.000290
10.020000	0.002264	-0.000354	-0.000290
10.030000	0.002901	-0.000354	-0.000290
10.040000	0.002582	0.000277	2.840100E-5
10.050000	0.002582	0.001541	0.000666
10.060000	0.002264	-0.000354	-0.000928
10.070000	0.002582	-0.000354	-0.000290
10.080000	0.002582	0.000277	2.840100E-5
10.090000	0.002582	0.000277	-0.000609
10.100000	0.002582	-3.854300E-5	2.840100E-5
10.110000	0.001945	0.000593	-0.000290
10.120000	0.003219	-3.854300E-5	-0.000609
10.130000	0.002582	-3.854300E-5	-0.000609
10.140000	0.003219	0.000277	2.840100E-5
10.150000	0.002264	-3.854300E-5	-0.000290
10.160000	0.002582	-3.854300E-5	2.840100E-5
10.170000	0.002901	0.000593	-0.000290
10.180000	0.002582	-0.000354	-0.000928
10.190000	0.002582	0.000277	-0.000609
10.200000	0.002264	-3.854300E-5	-0.000609
10.210000	0.002264	-3.854300E-5	-0.001247
10.220000	0.002901	-3.854300E-5	2.840100E-5
10.230000	0.002582	0.000909	-0.000290
10.240000	0.002901	-0.000986	-0.001247
10.250000	0.003219	0.000593	0.000666
10.260000	0.002264	-0.000670	-0.000928
10.270000	0.003538	-3.854300E-5	2.840100E-5
10.280000	0.002901	-3.854300E-5	-0.000609
10.290000	0.001626	-3.854300E-5	-0.000928
10.300000	0.002901	0.000593	2.840100E-5
10.310000	0.002264	-3.854300E-5	-0.000928
10.320000	0.002582	0.000277	2.840100E-5
10.330000	0.002582	-3.854300E-5	2.840100E-5
10.340000	0.002582	-3.854300E-5	-0.000928
10.350000	0.002582	0.000277	-0.000290
10.360000	0.003219	-0.000354	-0.000290
10.370000	0.002264	0.000277	-0.000290
10.380000	0.002264	-3.854300E-5	-0.000290
10.390000	0.002901	0.000277	2.840100E-5
10.400000	0.002582	-0.000354	-0.000928
10.410000	0.002264	0.000593	-0.000290
10.420000	0.002582	0.000277	-0.000290
10.430000	0.001945	-0.000670	-0.000290
10.440000	0.002264	-3.854300E-5	-0.000928
10.450000	0.002582	-0.000354	-0.000928
10.460000	0.002582	-0.000354	-0.000609
10.470000	0.003219	0.000593	2.840100E-5
10.480000	0.002582	-3.854300E-5	-0.000609
10.490000	0.001945	-3.854300E-5	-0.000290
10.500000	0.001945	-3.854300E-5	-0.000290
10.510000	0.002264	-0.000354	-0.000609
10.520000	0.002264	0.000909	2.840100E-5
10.530000	0.002582	0.000277	-0.000609
10.540000	0.002582	0.000277	-0.000609
10.550000	0.002264	0.000277	-0.000609
10.560000	0.002901	-3.854300E-5	-0.000290
10.570000	0.002582	-3.854300E-5	-0.000290
10.580000	0.001945	-0.000354	2.840100E-5
10.590000	0.002901	-0.000354	-0.000928
10.600000	0.002264	-3.854300E-5	-0.000609
10.610000	0.003219	-0.000354	-0.001247
10.620000	0.002582	-0.000354	2.840100E-5
10.630000	0.002582	0.000277	-0.000928
10.640000	0.002901	-3.854300E-5	2.840100E-5
10.650000	0.002582	-0.000354	-0.000928
10.660000	0.002901	0.000277	-0.000290
10.670000	0.002264	-3.854300E-5	-0.000290
10.680000	0.002582	0.000277	-0.000609
10.690000	0.002264	0.000277	-0.000290
10.700000	0.002901	0.000909	-0.000290
10.710000	0.002582	-0.000354	0.000347
10.720000	0.002264	0.000909	2.840100E-5
10.730000	0.002901	0.000277	-0.000290
10.740000	0.002264	-3.854300E-5	-0.000609
10.750000	0.002901	0.000593	-0.000928
10.760000	0.002582	0.000593	2.840100E-5
10.770000	0.002264	-0.000354	-0.000290
10.780000	0.002264	-0.000354	-0.000928
10.790000	0.002582	-3.854300E-5	-0.000290
10.800000	0.002264	0.000593	-0.000609
10.810000	0.002901	0.000593	-0.000609
10.820000	0.002582	0.000277	-0.000290
10.830000	0.002582	0.000277	-0.000290
10.840000	0.003219	-0.000354	-0.000290
10.850000	0.001945	0.000593	2.840100E-5
10.860000	0.002582	0.000593	-0.000290
10.870000	0.002901	-3.854300E-5	2.840100E-5
10.880000	0.002582	-3.854300E-5	-0.000928
10.890000	0.002582	-0.000354	-0.000609
10.900000	0.002582	-3.854300E-5	-0.000290
10.910000	0.002264	0.000277	-0.000609
10.920000	0.002582	0.000277	-0.000609
10.930000	0.002582	-3.854300E-5	-0.000928
10.940000	0.002901	0.000909	2.840100E-5
10.950000	0.002582	-3.854300E-5	-0.000609
10.960000	0.001945	-3.854300E-5	-0.000928
10.970000	0.002901	0.000593	2.840100E-5
10.980000	0.002264	0.000593	-0.000928
10.990000	0.002264	0.000277	2.840100E-5
11.000000	0.001945	-0.000354	-0.000290
11.010000	0.002901	-3.854300E-5	-0.000609
11.020000	0.002582	-3.854300E-5	-0.000290
11.030000	0.002582	-0.000354	-0.000609
11.040000	0.002901	-0.000354	2.840100E-5
11.050000	0.002901	0.000593	0.000347
11.060000	0.002264	0.000277	-0.000609
11.070000	0.002582	0.000277	-0.000609
11.080000	0.002582	-3.854300E-5	-0.000290
11.090000	0.002264	-0.000354	-0.000290
11.100000	0.003219	-0.000354	-0.000290
11.110000	0.001945	-0.000354	-0.000609
11.120000	0.002582	-3.854300E-5	-0.000609
11.130000	0.002264	-3.854300E-5	-0.000928
11.140000	0.002901	-3.854300E-5	-0.000609
11.150000	0.002264	-3.854300E-5	-0.000609
11.160000	0.002264	0.000277	-0.000609
11.170000	0.002582	-0.000354	-0.000609
11.180000	0.002582	-3.854300E-5	-0.000609
11.190000	0.002901	-3.854300E-5	-0.000609
11.200000	0.002582	0.000909	2.840100E-5
11.210000	0.002582	-0.000354	-0.000609
11.220000	0.002901	0.000593	-0.000609
11.230000	0.002582	0.000277	-0.001247
11.240000	0.002582	0.000277	-0.000609
11.250000	0.002582	0.000593	-0.000609
11.260000	0.001945	-3.854300E-5	-0.000928
11.270000	0.002901	-3.854300E-5	-0.000609
11.280000	0.002264	-3.854300E-5	-0.000928
11.290000	0.002582	-3.854300E-5	-0.000609
11.300000	0.002264	0.000277	-0.000290
11.310000	0.001945	-3.854300E-5	-0.000609
11.320000	0.003219	-0.000354	-0.000928
11.330000	0.002582	-0.000354	-0.000928
11.340000	0.002582	0.000593	-0.000290
11.350000	0.002264	-3.854300E-5	-0.000290
11.360000	0.002264	-3.854300E-5	-0.000609
11.370000	0.002582	-0.000354	-0.000609
11.380000	0.003219	0.000593	2.840100E-5
11.390000	0.002264	-3.854300E-5	-0.000290
11.400000	0.001626	-3.854300E-5	-0.000609
11.410000	0.002582	-3.854300E-5	-0.000928
11.420000	0.002901	-0.000354	-0.000290
11.430000	0.002582	-0.000354	-0.000609
11.440000	0.002582	-0.000354	-0.000928
11.450000	0.002582	-3.854300E-5	-0.000928
11.460000	0.001945	-0.000354	-0.000928
11.470000	0.002901	0.000277	2.840100E-5
11.480000	0.002901	-3.854300E-5	2.840100E-5
11.490000	0.002582	-0.000354	-0.000609
11.500000	0.002582	-0.000354	2.840100E-5
11.510000	0.002582	0.000277	-0.000290
11.520000	0.002582	0.000277	-0.000290
11.530000	0.002582	-0.000354	-0.000928
11.540000	0.002264	-3.854300E-5	-0.000609
11.550000	0.002901	-3.854300E-5	-0.000928
11.560000	0.002264	-3.854300E-5	-0.001247
11.570000	0.002582	0.000277	-0.000290
11.580000	0.002264	-3.854300E-5	-0.000609
11.590000	0.002582	-0.000354	-0.000609
11.600000	0.002582	-3.854300E-5	-0.000290
11.610000	0.002264	-0.000354	-0.000609
11.620000	0.001945	-3.854300E-5	-0.000928
11.630000	0.001626	-3.854300E-5	-0.001247
11.640000	0.002264	-3.854300E-5	-0.000609
11.650000	0.002901	-3.854300E-5	-0.000609
11.660000	0.002582	-3.854300E-5	-0.000609
11.670000	0.002264	-3.854300E-5	-0.000290
11.680000	0.002264	0.000277	-0.000928
11.690000	0.002264	-3.854300E-5	-0.000290
11.700000	0.002264	-0.000354	-0.000609
11.710000	0.002582	-0.000354	-0.000928
11.720000	0.002582	0.000593	-0.000290
11.730000	0.002582	-3.854300E-5	-0.001247
11.740000	0.001945	-0.000670	-0.000928
11.750000	0.002901	-3.854300E-5	-0.000290
11.760000	0.002582	-3.854300E-5	-0.000928
11.770000	0.002582	0.000277	-0.000609
11.780000	0.002264	-3.854300E-5	-0.000928
11.790000	0.002901	0.000593	2.840100E-5
11.800000	0.003219	0.000277	2.840100E-5
11.810000	0.002264	-0.000354	2.840100E-5
11.820000	0.002582	-3.854300E-5	-0.000290
11.830000	0.001945	-3.854300E-5	-0.001247
11.840000	0.002901	0.000277	-0.000290
11.850000	0.002264	-3.854300E-5	-0.000290
11.860000	0.002264	-0.000354	-0.000928
11.870000	0.001945	-0.000354	-0.000609
11.880000	0.002582	-3.854300E-5	-0.000928
11.890000	0.002264	-3.854300E-5	-0.000609
11.900000	0.002582	-3.854300E-5	-0.000609
11.910000	0.002901	-0.000354	-0.000609
11.920000	0.002264	-0.000354	-0.000290
11.930000	0.002582	-3.854300E-5	-0.000609
11.940000	0.002264	-3.854300E-5	2.840100E-5
11.950000	0.002582	0.000593	-0.000290
11.960000	0.001945	-0.000354	-0.000928
11.970000	0.002901	0.000277	-0.000928
11.980000	0.002901	-3.854300E-5	-0.000928
11.990000	0.002901	-3.854300E-5	-0.000928
12.000000	0.002264	-3.854300E-5	-0.001884
12.010000	0.002901	-3.854300E-5	-0.000290
12.020000	0.002264	-0.000354	-0.000928
12.030000	0.002582	-3.854300E-5	-0.001247
12.040000	0.002264	-3.854300E-5	-0.000609
12.050000	0.001945	-0.000354	-0.000290
12.060000	0.001945	-0.000354	-0.000928
12.070000	0.001626	-0.000670	-0.000928
12.080000	0.002582	-3.854300E-5	-0.000609
12.090000	0.002582	0.000277	2.840100E-5
12.100000	0.002582	-0.000354	-0.000928
12.110000	0.002901	-0.000354	-0.001247
12.120000	0.002264	-0.000670	-0.000928
12.130000	0.002264	0.000593	-0.000609
12.140000	0.002901	0.000277	-0.000290
12.150000	0.002901	-3.854300E-5	2.840100E-5
12.160000	0.002582	-0.000354	-0.000609
12.170000	0.002582	0.000277	-0.000609
12.180000	0.001945	0.000593	-0.000290
12.190000	0.002901	0.000593	-0.000290
12.200000	0.001626	-0.000354	-0.000290
12.210000	0.002264	-3.854300E-5	-0.000609
12.220000	0.002582	0.000277	-0.000928
12.230000	0.002582	-3.854300E-5	-0.000290
12.240000	0.003219	0.000593	2.840100E-5
12.250000	0.002264	-0.000354	-0.000609
12.260000	0.002264	0.000593	-0.000928
12.270000	0.002901	-3.854300E-5	-0.000290
12.280000	0.002901	-3.854300E-5	-0.000609
12.290000	0.003219	-3.854300E-5	2.840100E-5
12.300000	0.002582	-3.854300E-5	2.840100E-5
12.310000	0.002264	-0.000354	-0.001247
12.320000	0.002901	0.000277	-0.000609
12.330000	0.002582	0.000593	-0.000290
12.340000	0.002264	-0.000354	-0.000609
12.350000	0.002582	-0.000354	-0.000609
12.360000	0.002264	-3.854300E-5	-0.000928
12.370000	0.002582	-3.854300E-5	-0.000290
12.380000	0.002901	0.000593	-0.000609
12.390000	0.002264	-0.000354	-0.000609
12.400000	0.001945	-0.000354	-0.000928
12.410000	0.002901	0.000277	-0.000290
12.420000	0.002582	-3.854300E-5	-0.000290
12.430000	0.002582	-0.000354	-0.000290
12.440000	0.002582	0.000277	2.840100E-5
12.450000	0.001945	-0.000354	-0.000290
12.460000	0.003219	0.000593	2.840100E-5
12.470000	0.002582	0.000593	0.000347
12.480000	0.001945	-3.854300E-5	-0.000928
12.490000	0.002582	-3.854300E-5	-0.000928
12.500000	0.002582	-0.000354	-0.000609
12.510000	0.002582	-3.854300E-5	-0.000609
12.520000	0.002582	0.000593	2.840100E-5
12.530000	0.002264	-0.000354	-0.000928
12.540000	0.003219	-0.000670	-0.000290
12.550000	0.002582	0.000277	-0.000928
12.560000	0.002264	-3.854300E-5	-0.000928
12.570000	0.002901	0.000593	2.840100E-5
12.580000	0.002582	-3.854300E-5	-0.000609
12.590000	0.002582	0.000277	-0.000290
12.600000	0.002582	0.000277	2.840100E-5
12.610000	0.002901	0.000277	-0.000290
12.620000	0.002582	0.000593	-0.000290
12.630000	0.002582	0.000277	-0.000928
12.640000	0.002582	-0.000354	-0.000928
12.650000	0.003219	-3.854300E-5	-0.000290
12.660000	0.002901	-3.854300E-5	-0.000609
12.670000	0.002264	-3.854300E-5	-0.000609
12.680000	0.001626	-3.854300E-5	-0.000928
12.690000	0.001945	0.000277	-0.000928
12.700000	0.002582	-3.854300E-5	-0.000290
12.710000	0.001626	-3.854300E-5	0.000347
12.720000	0.002264	-3.854300E-5	-0.000609
12.730000	0.002264	-0.000354	-0.000609
12.740000	0.002901	-3.854300E-5	-0.000928
12.750000	0.002901	0.000593	2.840100E-5
12.760000	0.002264	0.000593	-0.000290
12.770000	0.002901	0.000593	-0.000609
12.780000	0.002582	-3.854300E-5	-0.000609
12.790000	0.002901	-3.854300E-5	-0.000609
12.800000	0.002582	-3.854300E-5	-0.000290
12.810000	0.002901	-3.854300E-5	-0.000609
12.820000	0.002582	0.000593	-0.000290
12.830000	0.002901	-0.000354	-0.000928
12.840000	0.002582	-0.000354	-0.000609
12.850000	0.002582	-3.854300E-5	-0.000609
12.860000	0.002582	-3.854300E-5	-0.000609
12.870000	0.002582	-0.000354	-0.000609
12.880000	0.002582	-0.000354	-0.000928
12.890000	0.002582	0.000277	-0.000290
12.900000	0.002582	-3.854300E-5	-0.000290
12.910000	0.002582	-3.854300E-5	-0.000290
12.920000	0.002582	0.000277	-0.000290
12.930000	0.002582	-3.854300E-5	-0.000928
12.940000	0.002264	-0.000354	-0.000609
12.950000	0.002901	0.000909	2.840100E-5
12.960000	0.002901	0.000593	2.840100E-5
12.970000	0.002901	-3.854300E-5	2.840100E-5
12.980000	0.002901	-0.000354	-0.000290
12.990000	0.002264	0.000277	-0.000609
13.000000	0.002901	0.000593	2.840100E-5
13.010000	0.002582	-0.000354	-0.000290
13.020000	0.002264	-3.854300E-5	-0.000609
13.030000	0.002264	-3.854300E-5	-0.000609
13.040000	0.003219	0.000593	-0.000290
13.050000	0.002582	0.000593	-0.000290
13.060000	0.001945	-3.854300E-5	-0.000609
13.070000	0.003219	0.000277	2.840100E-5
13.080000	0.002582	-3.854300E-5	-0.001247
13.090000	0.002582	0.000277	-0.000290
13.100000	0.002582	0.001225	0.000347
13.110000	0.002901	0.000277	-0.000609
13.120000	0.002901	0.000593	-0.000290
13.130000	0.002582	-3.854300E-5	-0.000609
13.140000	0.002264	-3.854300E-5	-0.000290
13.150000	0.002582	0.000277	0.000347
13.160000	0.002582	-0.000354	-0.000290
13.170000	0.002901	0.000277	-0.000290
13.180000	0.003219	-0.000354	-0.000609
13.190000	0.003219	-3.854300E-5	2.840100E-5
13.200000	0.003219	0.000909	0.000666
13.210000	0.002582	-0.000670	-0.000609
13.220000	0.003219	-3.854300E-5	-0.000609
13.230000	0.002901	-3.854300E-5	2.840100E-5
13.240000	0.002901	0.000593	0.000347
13.250000	0.002582	-0.000354	-0.000609
13.260000	0.002582	-3.854300E-5	-0.000609
13.270000	0.002901	0.000277	-0.000609
13.280000	0.002582	-3.854300E-5	-0.000609
13.290000	0.002582	-3.854300E-5	0.000347
13.300000	0.002582	0.000593	-0.000290
13.310000	0.003538	-3.854300E-5	-0.000609
13.320000	0.002582	0.000277	-0.000290
13.330000	0.002582	0.000277	-0.000609
13.340000	0.002582	0.000277	-0.000290
13.350000	0.002582	0.000277	2.840100E-5
13.360000	0.002582	-3.854300E-5	-0.000928
13.370000	0.002901	0.000277	-0.000290
13.380000	0.002582	-3.854300E-5	-0.000609
13.390000	0.002582	0.000909	0.000666
13.400000	0.002264	-0.000354	-0.000928
13.410000	0.002901	0.000909	-0.000609
13.420000	0.002901	-3.854300E-5	-0.000609
13.430000	0.002582	0.000277	2.840100E-5
13.440000	0.003538	0.000909	2.840100E-5
13.450000	0.002901	-0.000354	-0.000928
13.460000	0.002582	-3.854300E-5	-0.000609
13.470000	0.002901	0.000277	0.000666
13.480000	0.002582	-0.000354	-0.000609
13.490000	0.002264	0.000277	-0.000609
13.500000	0.002582	-3.854300E-5	-0.000290
13.510000	0.002264	0.000277	-0.000609
13.520000	0.002901	-3.854300E-5	-0.000290
13.530000	0.002582	-3.854300E-5	-0.000609
13.540000	0.001945	-0.000354	-0.000609
13.550000	0.002264	-3.854300E-5	-0.001247
13.560000	0.002582	-0.000354	-0.000609
13.570000	0.002582	0.000277	2.840100E-5
13.580000	0.003219	-3.854300E-5	-0.000290
13.590000	0.002901	0.000593	2.840100E-5
13.600000	0.002582	0.000593	-0.001247
13.610000	0.002264	0.000593	-0.000290
13.620000	0.002901	0.000593	2.840100E-5
13.630000	0.002582	-3.854300E-5	-0.000609
13.640000	0.002582	-3.854300E-5	-0.000609
13.650000	0.002582	-3.854300E-5	-0.000290
13.660000	0.002901	0.000277	-0.000290
13.670000	0.002582	0.000277	0.000347
13.680000	0.003219	-0.000354	-0.000290
13.690000	0.002901	0.000593	2.840100E-5
13.700000	0.003538	0.000593	-0.000290
13.710000	0.002582	0.000593	-0.000609
13.720000	0.003219	-0.000354	-0.000290
13.730000	0.002582	0.000277	-0.000290
13.740000	0.002582	-0.000354	-0.000609
13.750000	0.002264	0.000277	-0.000290
13.760000	0.002582	-3.854300E-5	-0.000290
13.770000	0.002582	-0.000354	2.840100E-5
13.780000	0.002264	-0.000354	-0.001566
13.790000	0.003219	0.001225	2.840100E-5
13.800000	0.002901	-3.854300E-5	-0.000609
13.810000	0.002901	-0.000354	2.840100E-5
13.820000	0.002582	-3.854300E-5	-0.000609
13.830000	0.002582	-0.000670	-0.000928
13.840000	0.002582	-3.854300E-5	-0.000609
13.850000	0.002901	-0.000354	-0.000609
13.860000	0.002264	0.000593	-0.000290
13.870000	0.002582	-0.000354	-0.000928
13.880000	0.003219	-3.854300E-5	-0.000928
13.890000	0.002582	-3.854300E-5	-0.000290
13.900000	0.002901	0.000909	2.840100E-5
13.910000	0.002264	-0.000354	-0.000609
13.920000	0.002264	0.000277	-0.000290
13.930000	0.002582	-0.000354	-0.000609
13.940000	0.002582	0.000277	2.840100E-5
13.950000	0.003219	-3.854300E-5	2.840100E-5
13.960000	0.002582	-3.854300E-5	-0.000609
13.970000	0.002901	0.000593	-0.000928
13.980000	0.002264	-3.854300E-5	-0.000928
13.990000	0.002264	-0.000670	-0.000290
14.000000	0.002901	-3.854300E-5	-0.000290
14.010000	0.002264	0.000277	-0.000609
14.020000	0.002901	-3.854300E-5	-0.000609
14.030000	0.002582	-0.000354	-0.000609
14.040000	0.002264	0.000593	-0.000609
14.050000	0.002901	-3.854300E-5	-0.000290
14.060000	0.002264	0.000277	-0.000609
14.070000	0.002582	0.001225	2.840100E-5
14.080000	0.002264	0.000277	-0.000609
14.090000	0.002264	-3.854300E-5	-0.000290
14.100000	0.002264	-3.854300E-5	-0.000290
14.110000	0.002582	-3.854300E-5	-0.000928
14.120000	0.001945	0.000277	-0.000290
14.130000	0.002582	-3.854300E-5	2.840100E-5
14.140000	0.003538	0.000593	-0.000290
14.150000	0.002582	-3.854300E-5	-0.000609
14.160000	0.002582	-0.000354	-0.000609
14.170000	0.001945	-3.854300E-5	-0.000290
14.180000	0.002582	-3.854300E-5	-0.000609
14.190000	0.001626	-3.854300E-5	-0.000928
14.200000	0.002582	-0.000354	-0.000928
14.210000	0.002582	0.000909	0.000347
14.220000	0.002582	0.000909	2.840100E-5
14.230000	0.002582	-0.000354	-0.000928
14.240000	0.003219	0.000593	-0.000290
14.250000	0.002582	-0.000354	-0.000290
14.260000	0.002582	0.000277	-0.000928
14.270000	0.001945	0.000593	-0.000928
14.280000	0.002901	-0.000354	-0.000928
14.290000	0.002582	-3.854300E-5	-0.000928
14.300000	0.002264	0.001541	0.000666
14.310000	0.002582	-3.854300E-5	-0.000290
14.320000	0.002582	-3.854300E-5	-0.000290
14.330000	0.002901	-3.854300E-5	-0.000928
14.340000	0.002901	-3.854300E-5	-0.000609
14.350000	0.002264	-3.854300E-5	2.840100E-5
14.360000	0.002901	0.000593	2.840100E-5
14.370000	0.003219	-3.854300E-5	0.000347
14.380000	0.001945	-0.001302	-0.001566
14.390000	0.002901	0.000593	-0.000609
14.400000	0.002582	-0.000354	-0.000928
14.410000	0.002582	-3.854300E-5	2.840100E-5
14.420000	0.002582	-3.854300E-5	-0.000290
14.430000	0.002582	-0.000354	-0.000928
14.440000	0.002582	-0.000354	-0.000290
14.450000	0.002582	0.000277	-0.000609
14.460000	0.002264	-0.000354	-0.000928
14.470000	0.002264	-0.000986	-0.000928
14.480000	0.002264	0.000277	-0.001247
14.490000	0.002264	-3.854300E-5	-0.000928
14.500000	0.002582	-3.854300E-5	-0.000290
14.510000	0.002264	-0.000354	-0.000928
14.520000	0.002264	0.000277	-0.000609
14.530000	0.001945	-0.000354	-0.000609
14.540000	0.002582	0.000277	-0.000290
14.550000	0.002582	0.000277	2.840100E-5
14.560000	0.002582	-3.854300E-5	-0.001247
14.570000	0.002901	0.000277	-0.000609
14.580000	0.001945	-3.854300E-5	-0.000928
14.590000	0.001945	0.000593	-0.000928
14.600000	0.002901	-3.854300E-5	-0.000609
14.610000	0.002264	-0.000354	-0.000928
14.620000	0.001945	-0.000670	-0.000928
14.630000	0.002582	-3.854300E-5	-0.000928
14.640000	0.002582	-3.854300E-5	-0.000928
14.650000	0.002264	-3.854300E-5	-0.000928
14.660000	0.002582	-3.854300E-5	-0.000290
14.670000	0.002264	-0.000354	-0.000609
14.680000	0.001945	-0.000354	-0.000928
14.690000	0.002582	-3.854300E-5	-0.000290
14.700000	0.002264	-3.854300E-5	-0.000290
14.710000	0.001945	-3.854300E-5	-0.000290
14.720000	0.001945	-0.000354	-0.000928
14.730000	0.002264	-0.000354	-0.000609
14.740000	0.002264	-3.854300E-5	-0.000290
14.750000	0.002582	-0.000354	-0.000928
14.760000	0.002264	-3.854300E-5	-0.001247
14.770000	0.002582	0.000277	-0.000609
14.780000	0.001945	-3.854300E-5	-0.000609
14.790000	0.001945	-3.854300E-5	-0.000609
14.800000	0.002582	-0.000354	-0.001247
14.810000	0.003219	-0.000354	-0.000609
14.820000	0.001945	-0.000354	-0.001566
14.830000	0.002901	-0.000354	-0.000928
14.840000	0.002582	-3.854300E-5	0.000347
14.850000	0.002264	-0.000354	-0.000928
14.860000	0.001626	-0.000354	-0.000928
14.870000	0.002901	-3.854300E-5	-0.000290
14.880000	0.002582	-0.000354	-0.000609
14.890000	0.002582	-3.854300E-5	0.000347
14.900000	0.003219	-0.000354	-0.000928
14.910000	0.001945	-0.000354	-0.000928
14.920000	0.002582	-3.854300E-5	-0.000609
14.930000	0.002901	-3.854300E-5	-0.000928
14.940000	0.001945	-0.000354	-0.000609
14.950000	0.002582	-3.854300E-5	-0.000290
14.960000	0.002582	-3.854300E-5	-0.000928
14.970000	0.002264	0.000277	-0.000290
14.980000	0.003219	-3.854300E-5	-0.000928
14.990000	0.002264	-3.854300E-5	-0.001566

