LabVIEW Measurement	
Writer_Version	2
Reader_Version	2
Separator	Tab
Decimal_Separator	.
Multi_Headings	Yes
X_Columns	One
Time_Pref	Absolute
Operator	rsh2268
Date	2024/10/15
Time	17:22:11.7293282999996275154
***End_of_Header***	
	
Channels	3			
Samples	1600	1600	1600	
Date	2024/10/15	2024/10/15	2024/10/15	
Time	17:22:11.7293282999996275154	17:22:11.7293282999996275154	17:22:11.7293282999996275154	
Y_Unit_Label	Volts	Volts	Volts	
X_Dimension	Time	Time	Time	
X0	0.0000000000000000E+0	0.0000000000000000E+0	0.0000000000000000E+0	
Delta_X	0.010000	0.010000	0.010000	
***End_of_Header***				
X_Value	cDAQ2Mod1/ai0	cDAQ2Mod1/ai1	cDAQ2Mod1/ai2	Comment
0.000000	0.003219	-0.000354	-0.000928
0.010000	0.002582	0.000277	-0.000290
0.020000	0.002901	0.001225	0.000347
0.030000	0.002901	-3.854300E-5	-0.000928
0.040000	0.002264	-3.854300E-5	-0.000290
0.050000	0.002901	-3.854300E-5	-0.000609
0.060000	0.002264	0.000277	-0.000290
0.070000	0.002582	0.000277	-0.000290
0.080000	0.002264	-3.854300E-5	-0.000928
0.090000	0.002582	-0.000354	-0.001247
0.100000	0.002582	-0.000354	2.840100E-5
0.110000	0.002582	-0.000354	-0.000609
0.120000	0.002582	0.000593	-0.000290
0.130000	0.003219	0.000277	-0.000609
0.140000	0.002264	-0.000354	-0.001247
0.150000	0.002901	0.000277	-0.000290
0.160000	0.002264	0.000277	-0.000609
0.170000	0.002901	-0.000354	-0.000928
0.180000	0.002582	-0.000354	-0.000928
0.190000	0.002901	0.000593	-0.000290
0.200000	0.002901	0.000277	-0.000928
0.210000	0.002582	-3.854300E-5	-0.000928
0.220000	0.002901	0.000909	-0.000290
0.230000	0.002582	-0.000354	-0.000609
0.240000	0.002264	0.000277	-0.000290
0.250000	0.002582	0.000593	-0.000609
0.260000	0.001945	-3.854300E-5	-0.001566
0.270000	0.001945	0.000277	-0.000290
0.280000	0.002582	-0.000354	-0.000928
0.290000	0.002582	-3.854300E-5	-0.000290
0.300000	0.002264	-3.854300E-5	-0.000928
0.310000	0.002582	-0.000354	-0.000290
0.320000	0.002582	0.000277	-0.000609
0.330000	0.002582	-3.854300E-5	-0.000609
0.340000	0.002264	-0.000354	-0.000609
0.350000	0.002582	-3.854300E-5	-0.000290
0.360000	0.002901	-3.854300E-5	-0.000609
0.370000	0.003219	0.000593	-0.000290
0.380000	0.002264	-0.000670	-0.001247
0.390000	0.001626	-0.000354	-0.000290
0.400000	0.002264	-3.854300E-5	-0.000609
0.410000	0.002582	-3.854300E-5	-0.001247
0.420000	0.002582	-3.854300E-5	2.840100E-5
0.430000	0.001945	-0.000354	-0.000928
0.440000	0.002582	-3.854300E-5	-0.000928
0.450000	0.002582	0.000277	2.840100E-5
0.460000	0.002582	-0.000986	-0.001247
0.470000	0.002901	-3.854300E-5	-0.000928
0.480000	0.002264	-0.000670	-0.000290
0.490000	0.002582	-3.854300E-5	-0.000290
0.500000	0.002582	-3.854300E-5	-0.000290
0.510000	0.002582	0.000593	-0.000290
0.520000	0.002901	-0.000354	-0.000928
0.530000	0.002264	-3.854300E-5	-0.000928
0.540000	0.002264	-0.000354	-0.000609
0.550000	0.002582	-0.000354	-0.000290
0.560000	0.002264	-3.854300E-5	-0.001247
0.570000	0.003219	-0.000354	-0.000609
0.580000	0.001945	-0.000354	-0.001566
0.590000	0.002264	-3.854300E-5	-0.000609
0.600000	0.002582	-3.854300E-5	-0.000609
0.610000	0.002582	-3.854300E-5	-0.001566
0.620000	0.002582	0.000593	-0.000290
0.630000	0.002582	-3.854300E-5	-0.000609
0.640000	0.002901	0.000277	-0.000609
0.650000	0.002582	0.000593	-0.000290
0.660000	0.002582	-3.854300E-5	-0.000609
0.670000	0.002901	-0.000354	2.840100E-5
0.680000	0.003219	-0.000670	-0.000609
0.690000	0.002264	-3.854300E-5	-0.000928
0.700000	0.002901	0.000277	-0.000290
0.710000	0.002264	-0.000354	-0.000928
0.720000	0.002901	0.000593	2.840100E-5
0.730000	0.002264	-3.854300E-5	-0.000928
0.740000	0.001945	-3.854300E-5	-0.000609
0.750000	0.002582	-0.000670	-0.000609
0.760000	0.002264	-0.000354	-0.000609
0.770000	0.002582	0.000277	-0.000609
0.780000	0.001945	-0.000670	-0.001566
0.790000	0.002264	-3.854300E-5	-0.000928
0.800000	0.002582	-0.000354	2.840100E-5
0.810000	0.002264	-3.854300E-5	-0.000928
0.820000	0.002582	0.000593	0.000347
0.830000	0.002264	0.000277	-0.000609
0.840000	0.002582	-3.854300E-5	-0.000928
0.850000	0.002582	0.000277	-0.000290
0.860000	0.002264	-3.854300E-5	-0.000928
0.870000	0.002582	0.000593	-0.000290
0.880000	0.002264	-0.000354	-0.000609
0.890000	0.002582	-0.000670	-0.000928
0.900000	0.002264	-0.000354	-0.000609
0.910000	0.002582	-0.000354	-0.000928
0.920000	0.002264	-0.000354	-0.000290
0.930000	0.001945	0.000277	-0.000609
0.940000	0.002582	-3.854300E-5	-0.000609
0.950000	0.002582	0.000593	-0.000928
0.960000	0.002264	-3.854300E-5	-0.000609
0.970000	0.002582	-3.854300E-5	-0.000609
0.980000	0.002264	0.000593	-0.000928
0.990000	0.002901	0.000593	2.840100E-5
1.000000	0.002264	-3.854300E-5	-0.000290
1.010000	0.002901	-3.854300E-5	-0.000290
1.020000	0.002901	0.000909	-0.000609
1.030000	0.002264	-3.854300E-5	-0.000609
1.040000	0.002264	-0.000354	-0.000928
1.050000	0.002901	0.000593	2.840100E-5
1.060000	0.002264	-0.000354	-0.000609
1.070000	0.002901	-3.854300E-5	-0.000290
1.080000	0.002582	-0.000354	-0.000928
1.090000	0.002582	-0.000354	-0.000609
1.100000	0.002582	0.000277	-0.000609
1.110000	0.001945	-0.000354	-0.000609
1.120000	0.002264	-3.854300E-5	-0.000609
1.130000	0.002901	-0.000354	-0.000609
1.140000	0.002264	-3.854300E-5	-0.000928
1.150000	0.002901	0.000277	-0.000290
1.160000	0.003219	-3.854300E-5	-0.000609
1.170000	0.002582	-0.000354	-0.001247
1.180000	0.002582	-3.854300E-5	-0.000290
1.190000	0.002582	0.000277	-0.000609
1.200000	0.002582	-3.854300E-5	-0.000928
1.210000	0.002582	0.000277	2.840100E-5
1.220000	0.002582	-3.854300E-5	-0.000290
1.230000	0.001945	-3.854300E-5	-0.000928
1.240000	0.002264	-0.000354	-0.000928
1.250000	0.002264	-0.000670	-0.000928
1.260000	0.002264	-0.000670	-0.001247
1.270000	0.002901	0.000593	2.840100E-5
1.280000	0.002264	-0.000354	-0.000928
1.290000	0.002901	0.000593	-0.000290
1.300000	0.002582	-3.854300E-5	2.840100E-5
1.310000	0.002901	-3.854300E-5	-0.000928
1.320000	0.002264	-3.854300E-5	-0.000290
1.330000	0.002264	-0.000354	-0.000928
1.340000	0.002582	-3.854300E-5	-0.000609
1.350000	0.001945	-3.854300E-5	-0.000290
1.360000	0.002264	-3.854300E-5	-0.000609
1.370000	0.001945	-3.854300E-5	-0.000609
1.380000	0.001945	-0.000354	-0.000290
1.390000	0.001945	-3.854300E-5	-0.000290
1.400000	0.003538	-3.854300E-5	2.840100E-5
1.410000	0.001945	0.000593	-0.000928
1.420000	0.002582	-3.854300E-5	-0.001247
1.430000	0.002264	0.000277	-0.000928
1.440000	0.002582	-0.000354	-0.000290
1.450000	0.002264	0.000593	-0.000290
1.460000	0.002582	0.000277	-0.000290
1.470000	0.002582	-3.854300E-5	-0.000290
1.480000	0.002264	-0.000354	-0.000290
1.490000	0.002264	-3.854300E-5	-0.000290
1.500000	0.002901	-3.854300E-5	-0.000290
1.510000	0.002264	-3.854300E-5	-0.000290
1.520000	0.003219	-3.854300E-5	-0.000609
1.530000	0.002264	-3.854300E-5	-0.000290
1.540000	0.002264	-3.854300E-5	-0.000928
1.550000	0.002582	0.000593	-0.000290
1.560000	0.002582	0.000277	-0.000928
1.570000	0.003219	0.000593	-0.000290
1.580000	0.002582	-3.854300E-5	-0.000609
1.590000	0.002582	0.000593	-0.000290
1.600000	0.002582	0.000593	-0.000609
1.610000	0.002582	-3.854300E-5	-0.000609
1.620000	0.002582	-0.000354	-0.000609
1.630000	0.002582	-3.854300E-5	-0.000290
1.640000	0.002582	0.000277	2.840100E-5
1.650000	0.002582	-3.854300E-5	-0.000609
1.660000	0.002582	0.000277	-0.000290
1.670000	0.002901	-3.854300E-5	-0.000290
1.680000	0.002582	-0.000354	-0.001566
1.690000	0.002901	0.000277	2.840100E-5
1.700000	0.002582	0.000277	-0.000609
1.710000	0.002582	-3.854300E-5	-0.000928
1.720000	0.003219	0.000593	0.000347
1.730000	0.002582	-3.854300E-5	-0.000290
1.740000	0.003219	0.000593	-0.000609
1.750000	0.002582	0.000277	2.840100E-5
1.760000	0.002582	-0.000670	-0.000928
1.770000	0.002582	0.000909	-0.000290
1.780000	0.003538	0.000593	-0.000290
1.790000	0.002582	-0.000354	-0.000609
1.800000	0.003219	0.000593	0.000347
1.810000	0.001945	-3.854300E-5	-0.000609
1.820000	0.002901	-3.854300E-5	-0.000290
1.830000	0.002582	-0.000354	-0.000290
1.840000	0.002264	-3.854300E-5	-0.000290
1.850000	0.002582	-3.854300E-5	-0.000290
1.860000	0.002901	-0.000354	-0.000290
1.870000	0.003219	0.000593	0.000347
1.880000	0.002264	-3.854300E-5	-0.000928
1.890000	0.002901	-0.000670	-0.000290
1.900000	0.002582	-3.854300E-5	-0.000928
1.910000	0.002901	-3.854300E-5	-0.000290
1.920000	0.002901	0.000593	0.000347
1.930000	0.002582	0.000277	-0.000290
1.940000	0.003219	0.000593	-0.000609
1.950000	0.002901	-3.854300E-5	-0.000290
1.960000	0.002264	-0.000670	-0.001247
1.970000	0.002264	0.000593	2.840100E-5
1.980000	0.001945	-0.000354	0.000347
1.990000	0.002264	-0.000670	-0.002203
2.000000	0.002582	-0.000354	-0.000290
2.010000	0.002582	0.000277	2.840100E-5
2.020000	0.002901	-3.854300E-5	-0.000290
2.030000	0.002264	0.000277	-0.000290
2.040000	0.001626	-3.854300E-5	-0.000609
2.050000	0.002901	0.000277	2.840100E-5
2.060000	0.002582	-0.000354	2.840100E-5
2.070000	0.002901	0.000593	-0.000290
2.080000	0.002582	-0.000354	-0.000609
2.090000	0.002264	-3.854300E-5	-0.000609
2.100000	0.002901	-0.000354	0.000347
2.110000	0.002582	-3.854300E-5	-0.000928
2.120000	0.003219	0.000277	0.000347
2.130000	0.002901	0.000909	-0.000290
2.140000	0.002264	-0.000354	-0.000290
2.150000	0.002264	0.000277	-0.000290
2.160000	0.002901	-3.854300E-5	-0.000609
2.170000	0.002264	-3.854300E-5	-0.000928
2.180000	0.002901	-3.854300E-5	-0.000609
2.190000	0.001945	-3.854300E-5	-0.000609
2.200000	0.002901	0.000277	-0.000290
2.210000	0.002582	-0.000354	-0.000609
2.220000	0.002901	-0.000354	-0.000609
2.230000	0.002582	-3.854300E-5	-0.000290
2.240000	0.002264	-0.000354	-0.000928
2.250000	0.002582	0.000277	2.840100E-5
2.260000	0.002582	-3.854300E-5	-0.000928
2.270000	0.002901	-3.854300E-5	2.840100E-5
2.280000	0.002901	0.000593	-0.000609
2.290000	0.002264	0.000277	-0.000609
2.300000	0.003219	-0.000354	-0.000609
2.310000	0.002582	0.000277	-0.000928
2.320000	0.002901	-3.854300E-5	-0.000609
2.330000	0.002582	0.000277	-0.000609
2.340000	0.003538	0.000593	-0.000290
2.350000	0.002901	-3.854300E-5	-0.000609
2.360000	0.002264	-0.000354	-0.000928
2.370000	0.002901	-3.854300E-5	0.000347
2.380000	0.002901	-3.854300E-5	-0.000928
2.390000	0.001945	-3.854300E-5	-0.000928
2.400000	0.003219	-3.854300E-5	-0.000609
2.410000	0.002582	-3.854300E-5	-0.000609
2.420000	0.002264	-3.854300E-5	2.840100E-5
2.430000	0.002901	-0.000354	-0.001247
2.440000	0.002901	-3.854300E-5	-0.000609
2.450000	0.002901	-3.854300E-5	-0.000609
2.460000	0.002901	0.000277	-0.000609
2.470000	0.002264	-3.854300E-5	-0.000609
2.480000	0.002901	-3.854300E-5	0.000347
2.490000	0.001945	-3.854300E-5	-0.000928
2.500000	0.003219	0.000277	-0.000290
2.510000	0.002582	0.000593	-0.000609
2.520000	0.002582	-3.854300E-5	-0.000290
2.530000	0.002582	-0.000354	-0.000928
2.540000	0.002582	0.000277	0.000347
2.550000	0.002582	-0.000354	-0.000290
2.560000	0.002901	0.000277	-0.000290
2.570000	0.002582	0.000277	2.840100E-5
2.580000	0.002582	-3.854300E-5	-0.000609
2.590000	0.002582	0.001225	-0.000609
2.600000	0.002582	-3.854300E-5	-0.000609
2.610000	0.002264	-0.000354	-0.000609
2.620000	0.003219	0.000277	0.000347
2.630000	0.002901	0.000277	-0.000609
2.640000	0.002901	-0.000354	-0.000928
2.650000	0.003219	0.000593	0.000666
2.660000	0.002264	-0.000670	-0.000609
2.670000	0.003219	0.000277	-0.000290
2.680000	0.002582	0.000277	-0.000609
2.690000	0.002582	-0.000354	-0.000928
2.700000	0.003538	0.000277	2.840100E-5
2.710000	0.002582	-3.854300E-5	-0.000290
2.720000	0.002582	-3.854300E-5	-0.000928
2.730000	0.002582	0.000909	0.000347
2.740000	0.002582	0.000593	0.000666
2.750000	0.002264	0.000277	-0.000290
2.760000	0.002264	0.000593	-0.000609
2.770000	0.002901	0.000277	-0.000290
2.780000	0.001945	-3.854300E-5	-0.000290
2.790000	0.002582	-3.854300E-5	-0.000609
2.800000	0.003219	-3.854300E-5	2.840100E-5
2.810000	0.001945	0.000277	-0.000928
2.820000	0.002582	-3.854300E-5	-0.000290
2.830000	0.002582	-0.000670	-0.000609
2.840000	0.002582	-0.000354	-0.000609
2.850000	0.002901	0.000909	0.000666
2.860000	0.002264	-3.854300E-5	-0.000609
2.870000	0.002901	-3.854300E-5	-0.000609
2.880000	0.003219	0.000593	2.840100E-5
2.890000	0.002582	0.000277	-0.000609
2.900000	0.002901	0.000277	0.000347
2.910000	0.002264	-3.854300E-5	-0.000290
2.920000	0.002264	-3.854300E-5	2.840100E-5
2.930000	0.001945	-3.854300E-5	-0.000928
2.940000	0.002901	-3.854300E-5	-0.000290
2.950000	0.002264	-3.854300E-5	-0.000928
2.960000	0.002582	-3.854300E-5	-0.000290
2.970000	0.002582	0.000277	-0.001247
2.980000	0.002582	-3.854300E-5	-0.000609
2.990000	0.002901	0.000277	-0.000290
3.000000	0.002901	0.000593	2.840100E-5
3.010000	0.003538	0.000277	-0.000290
3.020000	0.002582	-3.854300E-5	-0.000290
3.030000	0.002901	-3.854300E-5	-0.000609
3.040000	0.002582	-3.854300E-5	-0.000290
3.050000	0.001945	0.000593	0.000347
3.060000	0.002582	-3.854300E-5	-0.000928
3.070000	0.002901	0.000593	0.000666
3.080000	0.003538	0.000277	-0.000290
3.090000	0.002264	-3.854300E-5	2.840100E-5
3.100000	0.002901	-3.854300E-5	2.840100E-5
3.110000	0.002264	-0.000354	2.840100E-5
3.120000	0.002582	-3.854300E-5	-0.000928
3.130000	0.002901	-3.854300E-5	-0.000609
3.140000	0.002582	-3.854300E-5	2.840100E-5
3.150000	0.002264	-0.000354	-0.000928
3.160000	0.002582	0.000277	-0.000609
3.170000	0.002582	0.000277	2.840100E-5
3.180000	0.003219	-3.854300E-5	-0.000290
3.190000	0.002582	0.000277	0.000347
3.200000	0.002582	-3.854300E-5	-0.000290
3.210000	0.002901	-3.854300E-5	2.840100E-5
3.220000	0.002901	0.000277	2.840100E-5
3.230000	0.002264	-0.000354	-0.000928
3.240000	0.002582	0.001225	0.000666
3.250000	0.002582	0.000277	-0.000609
3.260000	0.002264	-3.854300E-5	-0.001247
3.270000	0.002582	0.000909	-0.000609
3.280000	0.002582	-0.000354	-0.000928
3.290000	0.002901	-0.000354	-0.000928
3.300000	0.002264	0.000593	-0.000609
3.310000	0.002901	-3.854300E-5	-0.000609
3.320000	0.003219	0.000593	2.840100E-5
3.330000	0.002901	-3.854300E-5	-0.000928
3.340000	0.002264	-3.854300E-5	-0.000290
3.350000	0.002582	-3.854300E-5	-0.000609
3.360000	0.002901	-0.000670	-0.000290
3.370000	0.001945	-0.000670	-0.001247
3.380000	0.002901	0.000277	0.000347
3.390000	0.002264	-0.000354	-0.000928
3.400000	0.002582	-3.854300E-5	-0.000609
3.410000	0.002582	0.000593	-0.000290
3.420000	0.002901	-3.854300E-5	2.840100E-5
3.430000	0.002582	-3.854300E-5	-0.000290
3.440000	0.002901	0.000593	-0.000290
3.450000	0.001945	-3.854300E-5	-0.000609
3.460000	0.003538	-3.854300E-5	-0.000609
3.470000	0.002582	-3.854300E-5	-0.000290
3.480000	0.002901	-3.854300E-5	-0.000928
3.490000	0.002582	-0.000354	-0.000609
3.500000	0.002582	-0.000354	-0.000290
3.510000	0.002582	0.000277	-0.000928
3.520000	0.003857	0.000277	-0.000290
3.530000	0.002901	-3.854300E-5	-0.000609
3.540000	0.001626	0.000277	-0.000928
3.550000	0.002582	-3.854300E-5	-0.000928
3.560000	0.002264	-3.854300E-5	-0.000290
3.570000	0.002264	-3.854300E-5	-0.000609
3.580000	0.002264	0.000277	-0.000290
3.590000	0.002264	0.000593	-0.000609
3.600000	0.002264	-0.000354	-0.000290
3.610000	0.002264	0.000593	0.000347
3.620000	0.002901	0.000277	-0.000609
3.630000	0.002264	0.000593	-0.000290
3.640000	0.002582	-0.000354	-0.000290
3.650000	0.003219	-0.000354	-0.000290
3.660000	0.002582	-3.854300E-5	-0.000609
3.670000	0.002264	-3.854300E-5	2.840100E-5
3.680000	0.002264	-3.854300E-5	-0.000290
3.690000	0.002582	0.000277	-0.000609
3.700000	0.002582	0.000277	2.840100E-5
3.710000	0.001945	0.000277	-0.000609
3.720000	0.002582	0.000277	-0.000290
3.730000	0.002264	-0.000354	-0.000609
3.740000	0.002582	-0.000354	-0.000609
3.750000	0.002582	0.000277	-0.000609
3.760000	0.001945	-3.854300E-5	-0.000609
3.770000	0.001945	-3.854300E-5	-0.000609
3.780000	0.002901	0.000277	-0.000928
3.790000	0.002901	-3.854300E-5	-0.000609
3.800000	0.002582	-0.000354	-0.000290
3.810000	0.002901	-3.854300E-5	2.840100E-5
3.820000	0.002582	-0.000354	-0.000290
3.830000	0.001945	-0.000354	-0.000609
3.840000	0.002582	0.000593	2.840100E-5
3.850000	0.002582	-3.854300E-5	-0.001566
3.860000	0.002582	-0.000670	-0.001566
3.870000	0.002582	-3.854300E-5	-0.000609
3.880000	0.002901	-3.854300E-5	-0.001247
3.890000	0.002264	-3.854300E-5	0.000347
3.900000	0.002901	0.000593	-0.000290
3.910000	0.001945	-0.000354	-0.000928
3.920000	0.003219	-3.854300E-5	2.840100E-5
3.930000	0.002582	0.000277	-0.000609
3.940000	0.003219	-0.000670	-0.000928
3.950000	0.002901	-3.854300E-5	-0.000290
3.960000	0.003219	0.000277	-0.000290
3.970000	0.002901	-3.854300E-5	-0.000609
3.980000	0.003857	-3.854300E-5	0.000347
3.990000	0.004494	-3.854300E-5	-0.000609
4.000000	0.004494	-0.000354	-0.000928
4.010000	0.004494	-3.854300E-5	-0.000290
4.020000	0.004494	-0.000670	-0.001247
4.030000	0.006087	-3.854300E-5	-0.000290
4.040000	0.005131	-0.000670	-0.001247
4.050000	0.006087	-0.000986	-0.001566
4.060000	0.005450	-0.000354	-0.001247
4.070000	0.008318	-0.001618	-0.001566
4.080000	0.007362	-0.000986	-0.002203
4.090000	0.009274	-0.001302	-0.001247
4.100000	0.008318	-0.001302	-0.001566
4.110000	0.011186	-0.001618	-0.001884
4.120000	0.011504	-0.000986	-0.000609
4.130000	0.013416	-0.001618	-0.001566
4.140000	0.016284	-0.001618	-0.002203
4.150000	0.015647	-0.000354	-0.000928
4.160000	0.015647	-0.001302	-0.002203
4.170000	0.021063	-0.001302	-0.001884
4.180000	0.021382	-0.001934	-0.001884
4.190000	0.021382	-0.001934	-0.002203
4.200000	0.023294	-0.001934	-0.002522
4.210000	0.020745	-0.002881	-0.002522
4.220000	0.024569	-0.002566	-0.002841
4.230000	0.022975	-0.002881	-0.003478
4.240000	0.028392	-0.002566	-0.003160
4.250000	0.035402	-0.003829	-0.005073
4.260000	0.034765	-0.004145	-0.004754
4.270000	0.034765	-0.005093	-0.005073
4.280000	0.040182	-0.005093	-0.005073
4.290000	0.035402	-0.005093	-0.005073
4.300000	0.040182	-0.006040	-0.006029
4.310000	0.044006	-0.006988	-0.008579
4.320000	0.043368	-0.006988	-0.008579
4.330000	0.043050	-0.008251	-0.011767
4.340000	0.052928	-0.010778	-0.012405
4.350000	0.049104	-0.011094	-0.014637
4.360000	0.055158	-0.011726	-0.016868
4.370000	0.053884	-0.012674	-0.015274
4.380000	0.057070	-0.014253	-0.015274
4.390000	0.055477	-0.014253	-0.016550
4.400000	0.057707	-0.014885	-0.017506
4.410000	0.063762	-0.016148	-0.020694
4.420000	0.062806	-0.016780	-0.022607
4.430000	0.063762	-0.017412	-0.023563
4.440000	0.062168	-0.018991	-0.025476
4.450000	0.073640	-0.019939	-0.026751
4.460000	0.076507	-0.021203	-0.028664
4.470000	0.069497	-0.021834	-0.029940
4.480000	0.073640	-0.023098	-0.031852
4.490000	0.075551	-0.024045	-0.032490
4.500000	0.077463	-0.025309	-0.034084
4.510000	0.079057	-0.025625	-0.035040
4.520000	0.081606	-0.027520	-0.035678
4.530000	0.082243	-0.028468	-0.037591
4.540000	0.091484	-0.029415	-0.038229
4.550000	0.085111	-0.030363	-0.036953
4.560000	0.088934	-0.032890	-0.035997
4.570000	0.089572	-0.033522	-0.033765
4.580000	0.093077	-0.033838	-0.035359
4.590000	0.093395	-0.035101	-0.037591
4.600000	0.096901	-0.035101	-0.035040
4.610000	0.095626	-0.036997	-0.037272
4.620000	0.101999	-0.037313	-0.040779
4.630000	0.095945	-0.039840	-0.045880
4.640000	0.097538	-0.041735	-0.049706
4.650000	0.101362	-0.042051	-0.052256
4.660000	0.108053	-0.043946	-0.055444
4.670000	0.106778	-0.046157	-0.057676
4.680000	0.102955	-0.047105	-0.059589
4.690000	0.105823	-0.049000	-0.061820
4.700000	0.108053	-0.049632	-0.063096
4.710000	0.109965	-0.051527	-0.064052
4.720000	0.113789	-0.052791	-0.065008
4.730000	0.112514	-0.054054	-0.066602
4.740000	0.115382	-0.055002	-0.065965
4.750000	0.111239	-0.056265	-0.066602
4.760000	0.115382	-0.057845	-0.066921
4.770000	0.119843	-0.058161	-0.066921
4.780000	0.114107	-0.059424	-0.067559
4.790000	0.120161	-0.060688	-0.067878
4.800000	0.121117	-0.061004	-0.067240
4.810000	0.118568	-0.062899	-0.068834
4.820000	0.118568	-0.062267	-0.067240
4.830000	0.120480	-0.063847	-0.067878
4.840000	0.125578	-0.064478	-0.067878
4.850000	0.124941	-0.065426	-0.068197
4.860000	0.123348	-0.067005	-0.068197
4.870000	0.123029	-0.067637	-0.068515
4.880000	0.126216	-0.066689	-0.068197
4.890000	0.126534	-0.068269	-0.067559
4.900000	0.120799	-0.068901	-0.068197
4.910000	0.124304	-0.069848	-0.068197
4.920000	0.128446	-0.070164	-0.068197
4.930000	0.121436	-0.070480	-0.067559
4.940000	0.123029	-0.070796	-0.067878
4.950000	0.127490	-0.071428	-0.068197
4.960000	0.133863	-0.072375	-0.067559
4.970000	0.131314	-0.072691	-0.067559
4.980000	0.129721	-0.072691	-0.067559
4.990000	0.132907	-0.073639	-0.067240
5.000000	0.131633	-0.073955	-0.067240
5.010000	0.134819	-0.074586	-0.067559
5.020000	0.132589	-0.073955	-0.066602
5.030000	0.134182	-0.073955	-0.067240
5.040000	0.132270	-0.073955	-0.066921
5.050000	0.132270	-0.074902	-0.066921
5.060000	0.130358	-0.075218	-0.066921
5.070000	0.137687	-0.075534	-0.066921
5.080000	0.131951	-0.075218	-0.066284
5.090000	0.133226	-0.076482	-0.067240
5.100000	0.138005	-0.076166	-0.066602
5.110000	0.133544	-0.076166	-0.066602
5.120000	0.131633	-0.076482	-0.066921
5.130000	0.130358	-0.077114	-0.066602
5.140000	0.132907	-0.077114	-0.066602
5.150000	0.134500	-0.076798	-0.065965
5.160000	0.137050	-0.077745	-0.067240
5.170000	0.134182	-0.077745	-0.066284
5.180000	0.130039	-0.078377	-0.066602
5.190000	0.135456	-0.077745	-0.065965
5.200000	0.138961	-0.078061	-0.066284
5.210000	0.135456	-0.077745	-0.066284
5.220000	0.132907	-0.077429	-0.065646
5.230000	0.135775	-0.077745	-0.065646
5.240000	0.135138	-0.078377	-0.065965
5.250000	0.136094	-0.077429	-0.065008
5.260000	0.135138	-0.078377	-0.066284
5.270000	0.136094	-0.078061	-0.065646
5.280000	0.137687	-0.078377	-0.065965
5.290000	0.137687	-0.078377	-0.066284
5.300000	0.138961	-0.078693	-0.065646
5.310000	0.136731	-0.078377	-0.065965
5.320000	0.138324	-0.078693	-0.065646
5.330000	0.135138	-0.078693	-0.065646
5.340000	0.138324	-0.078693	-0.066284
5.350000	0.136412	-0.079325	-0.066921
5.360000	0.132589	-0.079009	-0.065327
5.370000	0.134500	-0.079009	-0.065965
5.380000	0.135138	-0.079325	-0.065965
5.390000	0.137368	-0.079641	-0.066284
5.400000	0.138324	-0.078693	-0.065646
5.410000	0.138324	-0.078377	-0.065965
5.420000	0.136731	-0.078693	-0.065965
5.430000	0.138005	-0.078693	-0.065965
5.440000	0.133226	-0.079325	-0.065646
5.450000	0.139917	-0.079009	-0.065646
5.460000	0.139917	-0.079009	-0.065965
5.470000	0.139917	-0.078693	-0.065646
5.480000	0.139280	-0.078377	-0.064690
5.490000	0.134182	-0.079325	-0.065965
5.500000	0.139599	-0.079009	-0.065646
5.510000	0.138005	-0.079641	-0.065646
5.520000	0.135775	-0.079325	-0.065965
5.530000	0.136094	-0.079641	-0.065646
5.540000	0.136731	-0.079009	-0.065965
5.550000	0.138961	-0.079641	-0.066602
5.560000	0.133863	-0.079956	-0.066921
5.570000	0.137050	-0.079009	-0.065646
5.580000	0.135138	-0.079641	-0.065965
5.590000	0.131951	-0.079641	-0.066284
5.600000	0.136731	-0.079956	-0.066602
5.610000	0.134182	-0.079009	-0.065646
5.620000	0.137368	-0.079325	-0.065646
5.630000	0.133544	-0.080272	-0.066284
5.640000	0.132270	-0.079009	-0.065965
5.650000	0.135138	-0.079641	-0.065965
5.660000	0.136731	-0.079956	-0.066284
5.670000	0.133226	-0.079325	-0.066284
5.680000	0.134819	-0.079325	-0.065965
5.690000	0.133226	-0.079325	-0.066284
5.700000	0.136731	-0.079009	-0.065646
5.710000	0.134500	-0.079641	-0.065646
5.720000	0.132270	-0.079641	-0.065965
5.730000	0.134500	-0.079325	-0.065965
5.740000	0.130039	-0.079641	-0.066284
5.750000	0.135456	-0.079956	-0.065646
5.760000	0.130677	-0.078693	-0.065965
5.770000	0.130039	-0.079641	-0.065646
5.780000	0.133863	-0.079956	-0.066284
5.790000	0.131633	-0.079641	-0.066284
5.800000	0.137687	-0.079641	-0.065965
5.810000	0.135138	-0.080272	-0.066602
5.820000	0.130358	-0.080272	-0.066602
5.830000	0.137687	-0.079641	-0.066284
5.840000	0.131633	-0.080272	-0.066921
5.850000	0.130677	-0.079009	-0.066602
5.860000	0.131951	-0.080272	-0.066284
5.870000	0.128765	-0.080272	-0.066602
5.880000	0.132589	-0.079641	-0.065965
5.890000	0.128765	-0.079956	-0.066602
5.900000	0.129402	-0.079956	-0.066602
5.910000	0.130995	-0.080272	-0.066921
5.920000	0.130995	-0.080272	-0.066921
5.930000	0.128128	-0.079641	-0.066921
5.940000	0.127172	-0.079956	-0.066284
5.950000	0.130995	-0.080272	-0.066284
5.960000	0.129721	-0.080272	-0.066602
5.970000	0.125260	-0.079956	-0.066284
5.980000	0.125578	-0.079956	-0.066284
5.990000	0.132589	-0.079956	-0.066602
6.000000	0.124304	-0.080272	-0.066284
6.010000	0.127809	-0.080904	-0.066921
6.020000	0.129402	-0.079641	-0.066921
6.030000	0.129721	-0.080588	-0.067240
6.040000	0.129721	-0.079956	-0.067240
6.050000	0.129083	-0.080272	-0.066284
6.060000	0.126853	-0.080272	-0.067559
6.070000	0.127490	-0.079641	-0.066921
6.080000	0.128446	-0.080272	-0.066602
6.090000	0.121436	-0.079956	-0.066921
6.100000	0.127490	-0.080272	-0.067240
6.110000	0.127809	-0.080588	-0.066921
6.120000	0.129083	-0.080588	-0.067240
6.130000	0.127490	-0.079956	-0.067240
6.140000	0.125260	-0.080588	-0.067240
6.150000	0.125897	-0.080272	-0.067240
6.160000	0.121755	-0.080904	-0.067240
6.170000	0.123348	-0.080272	-0.066921
6.180000	0.121436	-0.080272	-0.067240
6.190000	0.123348	-0.080588	-0.067878
6.200000	0.121755	-0.080904	-0.067559
6.210000	0.127809	-0.080904	-0.067240
6.220000	0.119524	-0.080904	-0.066921
6.230000	0.120480	-0.080904	-0.067878
6.240000	0.126853	-0.080588	-0.068197
6.250000	0.121436	-0.080904	-0.066921
6.260000	0.121755	-0.080904	-0.067559
6.270000	0.123029	-0.080904	-0.067240
6.280000	0.123029	-0.080904	-0.067240
6.290000	0.125897	-0.080588	-0.067559
6.300000	0.126534	-0.081220	-0.067878
6.310000	0.125578	-0.080588	-0.067559
6.320000	0.123029	-0.081220	-0.068197
6.330000	0.116975	-0.080904	-0.068197
6.340000	0.121755	-0.080904	-0.067559
6.350000	0.119206	-0.081220	-0.067878
6.360000	0.120799	-0.080904	-0.067559
6.370000	0.122073	-0.080904	-0.067559
6.380000	0.120480	-0.081852	-0.068834
6.390000	0.117931	-0.081220	-0.068197
6.400000	0.121436	-0.081220	-0.067240
6.410000	0.120799	-0.080904	-0.068197
6.420000	0.118250	-0.081220	-0.067878
6.430000	0.122073	-0.081220	-0.068515
6.440000	0.117612	-0.081220	-0.068515
6.450000	0.121117	-0.081220	-0.068197
6.460000	0.117294	-0.081220	-0.068834
6.470000	0.117294	-0.081220	-0.068834
6.480000	0.118568	-0.081536	-0.068515
6.490000	0.119843	-0.080904	-0.068834
6.500000	0.117612	-0.080904	-0.068197
6.510000	0.117931	-0.081220	-0.068834
6.520000	0.117612	-0.081220	-0.068834
6.530000	0.117612	-0.080588	-0.068515
6.540000	0.120480	-0.081220	-0.068515
6.550000	0.117612	-0.081536	-0.068197
6.560000	0.115700	-0.081536	-0.068834
6.570000	0.120161	-0.081220	-0.068515
6.580000	0.114426	-0.081220	-0.068197
6.590000	0.117294	-0.082168	-0.068515
6.600000	0.117294	-0.081536	-0.068515
6.610000	0.116019	-0.081536	-0.068834
6.620000	0.114745	-0.081852	-0.068515
6.630000	0.113789	-0.082483	-0.069472
6.640000	0.114107	-0.081220	-0.069153
6.650000	0.115382	-0.081220	-0.068197
6.660000	0.116338	-0.081852	-0.069153
6.670000	0.115382	-0.081220	-0.068834
6.680000	0.119524	-0.081536	-0.068197
6.690000	0.118887	-0.081536	-0.068197
6.700000	0.116338	-0.081220	-0.068197
6.710000	0.117612	-0.081220	-0.068834
6.720000	0.116656	-0.081220	-0.068197
6.730000	0.115063	-0.081536	-0.068834
6.740000	0.111239	-0.081852	-0.069472
6.750000	0.114745	-0.081536	-0.068834
6.760000	0.113789	-0.082168	-0.069472
6.770000	0.112514	-0.082168	-0.069472
6.780000	0.114745	-0.082168	-0.069153
6.790000	0.114107	-0.082168	-0.068834
6.800000	0.110602	-0.081852	-0.069472
6.810000	0.113789	-0.082483	-0.069791
6.820000	0.115382	-0.081220	-0.068834
6.830000	0.115382	-0.082168	-0.069153
6.840000	0.111558	-0.081536	-0.069791
6.850000	0.116656	-0.081220	-0.068515
6.860000	0.111877	-0.082168	-0.069472
6.870000	0.113789	-0.081220	-0.069153
6.880000	0.111877	-0.081852	-0.069791
6.890000	0.112195	-0.081852	-0.069472
6.900000	0.114426	-0.081536	-0.069153
6.910000	0.113151	-0.081852	-0.069791
6.920000	0.105823	-0.081536	-0.069472
6.930000	0.110921	-0.082168	-0.069791
6.940000	0.109328	-0.081852	-0.069472
6.950000	0.106460	-0.082168	-0.069472
6.960000	0.112195	-0.082168	-0.069791
6.970000	0.105185	-0.081536	-0.069472
6.980000	0.107416	-0.082483	-0.069472
6.990000	0.102317	-0.081852	-0.070109
7.000000	0.104548	-0.082168	-0.070109
7.010000	0.101043	-0.082168	-0.070109
7.020000	0.100724	-0.081852	-0.070109
7.030000	0.100724	-0.082168	-0.070428
7.040000	0.097538	-0.082799	-0.071066
7.050000	0.096901	-0.082168	-0.070109
7.060000	0.095626	-0.082483	-0.071066
7.070000	0.095945	-0.083115	-0.071066
7.080000	0.092440	-0.082168	-0.069472
7.090000	0.089572	-0.083115	-0.070747
7.100000	0.091165	-0.082799	-0.069791
7.110000	0.087341	-0.083431	-0.069472
7.120000	0.086704	-0.083431	-0.068197
7.130000	0.084155	-0.082483	-0.065646
7.140000	0.085111	-0.083115	-0.065646
7.150000	0.082243	-0.082483	-0.063414
7.160000	0.079694	-0.082168	-0.063414
7.170000	0.080331	-0.081852	-0.062458
7.180000	0.079694	-0.081220	-0.059270
7.190000	0.077782	-0.081220	-0.056719
7.200000	0.077463	-0.079956	-0.053531
7.210000	0.075551	-0.079956	-0.050981
7.220000	0.074277	-0.078377	-0.047474
7.230000	0.073640	-0.077429	-0.045242
7.240000	0.071409	-0.076798	-0.043648
7.250000	0.070772	-0.074902	-0.041417
7.260000	0.068223	-0.074586	-0.041098
7.270000	0.066629	-0.073639	-0.039504
7.280000	0.065674	-0.072059	-0.037591
7.290000	0.064399	-0.071428	-0.035678
7.300000	0.063124	-0.069848	-0.034084
7.310000	0.061850	-0.068585	-0.033446
7.320000	0.059301	-0.067953	-0.032171
7.330000	0.058345	-0.064794	-0.030258
7.340000	0.057070	-0.063531	-0.029940
7.350000	0.055796	-0.061951	-0.029621
7.360000	0.054840	-0.060056	-0.028664
7.370000	0.052928	-0.059108	-0.028027
7.380000	0.051972	-0.056265	-0.027070
7.390000	0.050697	-0.055634	-0.026433
7.400000	0.048467	-0.054054	-0.024839
7.410000	0.047830	-0.052159	-0.023245
7.420000	0.045599	-0.051211	-0.022926
7.430000	0.044643	-0.049316	-0.021969
7.440000	0.043368	-0.047737	-0.021013
7.450000	0.043368	-0.045210	-0.019419
7.460000	0.041138	-0.043946	-0.019738
7.470000	0.040182	-0.041735	-0.018144
7.480000	0.038907	-0.039840	-0.016868
7.490000	0.036996	-0.037944	-0.014956
7.500000	0.035402	-0.036049	-0.013043
7.510000	0.035721	-0.033838	-0.012724
7.520000	0.033809	-0.031627	-0.012724
7.530000	0.032535	-0.030047	-0.011767
7.540000	0.031260	-0.027520	-0.010811
7.550000	0.030304	-0.026257	-0.009855
7.560000	0.028711	-0.024677	-0.008579
7.570000	0.028392	-0.022466	-0.006985
7.580000	0.027755	-0.020255	-0.007623
7.590000	0.026799	-0.018360	-0.005710
7.600000	0.024887	-0.017096	-0.005073
7.610000	0.023613	-0.015201	-0.005391
7.620000	0.023294	-0.012990	-0.004435
7.630000	0.022338	-0.012674	-0.004116
7.640000	0.021701	-0.010778	-0.005073
7.650000	0.020745	-0.009199	-0.004435
7.660000	0.019470	-0.008251	-0.004435
7.670000	0.019152	-0.006672	-0.003478
7.680000	0.018196	-0.006356	-0.002841
7.690000	0.016921	-0.005093	-0.002841
7.700000	0.016284	-0.004145	-0.002841
7.710000	0.016284	-0.004145	-0.003160
7.720000	0.015009	-0.003513	-0.002841
7.730000	0.014372	-0.003197	-0.002522
7.740000	0.013097	-0.003829	-0.002522
7.750000	0.012779	-0.003197	-0.002841
7.760000	0.011504	-0.002250	-0.002203
7.770000	0.011186	-0.002566	-0.002841
7.780000	0.010230	-0.002881	-0.002203
7.790000	0.009592	-0.002250	-0.001884
7.800000	0.008636	-0.002250	-0.001884
7.810000	0.008318	-0.002250	-0.002841
7.820000	0.007999	-0.001934	-0.002203
7.830000	0.007043	-0.001934	-0.001884
7.840000	0.006087	-0.001302	-0.002203
7.850000	0.006087	-0.001302	-0.000928
7.860000	0.005131	-0.001934	-0.002203
7.870000	0.005131	-0.000670	-0.001247
7.880000	0.004175	-0.001302	-0.001884
7.890000	0.003538	-0.001934	-0.002203
7.900000	0.003538	-0.000986	-0.001247
7.910000	0.003219	-0.001618	-0.001566
7.920000	0.002901	-0.001302	-0.001884
7.930000	0.001626	-0.001302	-0.001884
7.940000	0.001945	-0.000670	-0.001566
7.950000	0.002264	-0.000670	-0.001884
7.960000	0.001626	-0.000986	-0.002203
7.970000	0.001626	-0.000986	-0.001247
7.980000	0.002264	-3.854300E-5	-0.001247
7.990000	0.002264	-0.000354	-0.000928
8.000000	0.002264	-0.000354	-0.000290
8.010000	0.002582	-0.000670	-0.001247
8.020000	0.002582	0.000593	2.840100E-5
8.030000	0.002264	-0.000354	-0.000290
8.040000	0.002582	-0.000354	-0.000290
8.050000	0.002264	-3.854300E-5	-0.000609
8.060000	0.002264	0.000593	2.840100E-5
8.070000	0.002582	0.000277	-0.000609
8.080000	0.001945	-3.854300E-5	-0.000290
8.090000	0.001945	-0.000354	-0.000928
8.100000	0.002582	-0.000354	-0.000290
8.110000	0.002264	-0.001302	-0.001566
8.120000	0.002582	0.000593	-0.000290
8.130000	0.002582	-3.854300E-5	-0.000609
8.140000	0.002582	-0.000354	-0.000290
8.150000	0.002582	0.000277	-0.000609
8.160000	0.003219	-0.000354	-0.000928
8.170000	0.002582	0.000277	-0.000290
8.180000	0.001945	0.000277	-0.000609
8.190000	0.002264	-0.000354	-0.000928
8.200000	0.002901	-0.000354	2.840100E-5
8.210000	0.002264	-0.000354	-0.000928
8.220000	0.002582	-3.854300E-5	-0.000290
8.230000	0.002901	-3.854300E-5	-0.000290
8.240000	0.002582	-0.000354	-0.000928
8.250000	0.002582	0.000277	-0.000290
8.260000	0.002582	-0.000354	-0.000928
8.270000	0.003538	0.000909	2.840100E-5
8.280000	0.002264	-0.000354	-0.000609
8.290000	0.002264	0.001225	2.840100E-5
8.300000	0.002582	0.000277	-0.000609
8.310000	0.002901	0.000277	2.840100E-5
8.320000	0.002582	-0.000354	-0.000609
8.330000	0.002582	0.000909	-0.000609
8.340000	0.002901	-0.000354	-0.000609
8.350000	0.002582	-0.000354	-0.000928
8.360000	0.003219	-3.854300E-5	-0.000609
8.370000	0.001945	-3.854300E-5	-0.000609
8.380000	0.002264	-0.000354	-0.001247
8.390000	0.002582	0.000593	-0.000290
8.400000	0.002264	0.000277	-0.000609
8.410000	0.001945	-0.000354	-0.000609
8.420000	0.002264	0.000277	2.840100E-5
8.430000	0.001945	-3.854300E-5	-0.000290
8.440000	0.002264	-3.854300E-5	-0.001566
8.450000	0.002901	-3.854300E-5	2.840100E-5
8.460000	0.002264	-0.000354	-0.000290
8.470000	0.002901	0.000277	-0.000928
8.480000	0.002582	-3.854300E-5	2.840100E-5
8.490000	0.002582	-3.854300E-5	-0.000290
8.500000	0.002264	-0.000354	-0.001247
8.510000	0.002582	-0.000354	-0.000609
8.520000	0.002264	-3.854300E-5	-0.000290
8.530000	0.003219	0.000277	-0.000290
8.540000	0.002582	-0.000354	-0.000609
8.550000	0.002582	0.000593	2.840100E-5
8.560000	0.002582	-3.854300E-5	-0.000609
8.570000	0.003219	-0.000354	2.840100E-5
8.580000	0.002901	0.000277	-0.000928
8.590000	0.002582	-0.000354	-0.000928
8.600000	0.002264	0.000909	2.840100E-5
8.610000	0.003219	0.000593	-0.000290
8.620000	0.002901	0.000593	-0.000290
8.630000	0.002901	0.000909	2.840100E-5
8.640000	0.002264	-0.000354	-0.000609
8.650000	0.002901	-3.854300E-5	-0.000290
8.660000	0.002264	-3.854300E-5	-0.000290
8.670000	0.003538	0.000593	2.840100E-5
8.680000	0.002582	-0.000354	-0.000609
8.690000	0.002582	0.000593	-0.000290
8.700000	0.002901	0.000593	0.000347
8.710000	0.002582	-3.854300E-5	-0.000609
8.720000	0.002264	0.000909	-0.000609
8.730000	0.002264	0.000277	-0.000609
8.740000	0.002901	0.000277	2.840100E-5
8.750000	0.002582	0.000277	-0.000290
8.760000	0.002582	-3.854300E-5	-0.000928
8.770000	0.002264	0.000277	-0.000609
8.780000	0.002901	0.000909	2.840100E-5
8.790000	0.002582	-0.000354	-0.000928
8.800000	0.002901	-3.854300E-5	-0.000609
8.810000	0.002582	0.000277	-0.000290
8.820000	0.002582	-0.000354	-0.000928
8.830000	0.002582	0.000593	0.000347
8.840000	0.002901	-3.854300E-5	2.840100E-5
8.850000	0.002582	-3.854300E-5	-0.000928
8.860000	0.002264	-3.854300E-5	-0.000928
8.870000	0.002582	0.000277	2.840100E-5
8.880000	0.002264	-3.854300E-5	-0.000290
8.890000	0.002264	0.000277	2.840100E-5
8.900000	0.002901	0.000277	-0.000290
8.910000	0.002901	-3.854300E-5	-0.000928
8.920000	0.002582	-0.000354	-0.000290
8.930000	0.002582	-3.854300E-5	-0.000290
8.940000	0.002264	-3.854300E-5	-0.000609
8.950000	0.002264	0.000593	-0.000290
8.960000	0.002264	-3.854300E-5	-0.000609
8.970000	0.002901	-0.000354	-0.000928
8.980000	0.002901	0.000277	0.000347
8.990000	0.002264	-3.854300E-5	-0.000928
9.000000	0.003219	-0.000670	-0.000609
9.010000	0.002264	-3.854300E-5	-0.000928
9.020000	0.002582	-3.854300E-5	-0.000290
9.030000	0.002264	-0.000354	-0.001247
9.040000	0.002582	0.000277	2.840100E-5
9.050000	0.002582	0.000593	2.840100E-5
9.060000	0.001945	-0.000354	-0.000609
9.070000	0.002901	-3.854300E-5	0.000347
9.080000	0.002264	0.000277	-0.000609
9.090000	0.002582	-0.000354	-0.000290
9.100000	0.001945	0.000593	-0.000290
9.110000	0.002264	-3.854300E-5	2.840100E-5
9.120000	0.002901	-0.000354	-0.000609
9.130000	0.002264	0.000277	-0.000290
9.140000	0.002901	0.000277	2.840100E-5
9.150000	0.002901	0.000277	-0.000928
9.160000	0.002901	-3.854300E-5	-0.000290
9.170000	0.002901	-3.854300E-5	-0.000609
9.180000	0.002582	-3.854300E-5	-0.000609
9.190000	0.002582	0.000277	2.840100E-5
9.200000	0.002264	-3.854300E-5	-0.000290
9.210000	0.002901	-0.000354	-0.000609
9.220000	0.002582	-3.854300E-5	-0.000609
9.230000	0.002582	0.000593	-0.000290
9.240000	0.002582	-0.000354	-0.000609
9.250000	0.002901	0.000909	2.840100E-5
9.260000	0.002901	-3.854300E-5	-0.000290
9.270000	0.002901	0.000277	-0.000928
9.280000	0.002901	-3.854300E-5	2.840100E-5
9.290000	0.002582	0.000277	-0.000290
9.300000	0.002901	0.000277	-0.000290
9.310000	0.003219	-0.000354	-0.000928
9.320000	0.002901	0.000277	-0.000290
9.330000	0.002582	0.000593	-0.000609
9.340000	0.002582	-3.854300E-5	-0.001247
9.350000	0.002582	0.000593	-0.000290
9.360000	0.002582	-3.854300E-5	-0.000609
9.370000	0.002582	0.000593	-0.000290
9.380000	0.002582	-3.854300E-5	-0.000290
9.390000	0.002901	-3.854300E-5	-0.000290
9.400000	0.002901	0.000593	2.840100E-5
9.410000	0.002264	0.000593	-0.000609
9.420000	0.002582	-0.000354	-0.000290
9.430000	0.002582	0.000277	-0.000290
9.440000	0.002582	0.000277	-0.000609
9.450000	0.002901	-0.000354	-0.000609
9.460000	0.002582	-0.000354	-0.000290
9.470000	0.002582	-3.854300E-5	-0.000609
9.480000	0.002582	-3.854300E-5	-0.000609
9.490000	0.002582	0.000593	-0.000928
9.500000	0.002264	-3.854300E-5	-0.000609
9.510000	0.003219	-0.000354	-0.001247
9.520000	0.002901	-3.854300E-5	-0.000609
9.530000	0.002582	-3.854300E-5	-0.000290
9.540000	0.002582	-3.854300E-5	-0.000928
9.550000	0.002582	0.000277	-0.000290
9.560000	0.002582	0.000593	-0.000290
9.570000	0.003219	-3.854300E-5	-0.000290
9.580000	0.002264	0.000277	2.840100E-5
9.590000	0.002901	0.000593	-0.000290
9.600000	0.002582	0.000593	-0.000290
9.610000	0.002901	-3.854300E-5	-0.000609
9.620000	0.003538	-3.854300E-5	-0.000609
9.630000	0.002901	-0.000354	2.840100E-5
9.640000	0.002264	-3.854300E-5	-0.000609
9.650000	0.002582	-3.854300E-5	-0.000290
9.660000	0.002582	0.000277	-0.000609
9.670000	0.002264	-0.000354	-0.000290
9.680000	0.002582	-3.854300E-5	-0.000290
9.690000	0.002264	-3.854300E-5	-0.000609
9.700000	0.002582	0.000277	2.840100E-5
9.710000	0.002264	-0.000354	-0.000290
9.720000	0.002582	-3.854300E-5	-0.000290
9.730000	0.002582	-3.854300E-5	-0.000609
9.740000	0.002582	-3.854300E-5	-0.000609
9.750000	0.002264	-3.854300E-5	-0.000609
9.760000	0.002264	-3.854300E-5	-0.000928
9.770000	0.001945	-0.000354	-0.000290
9.780000	0.002582	-3.854300E-5	-0.000928
9.790000	0.001945	-0.000354	-0.000609
9.800000	0.002264	-3.854300E-5	-0.000928
9.810000	0.003219	-3.854300E-5	-0.000609
9.820000	0.002901	-3.854300E-5	-0.000928
9.830000	0.003219	-0.000354	-0.000290
9.840000	0.002582	0.000277	-0.000609
9.850000	0.002582	-3.854300E-5	-0.000290
9.860000	0.002582	-0.000670	-0.000609
9.870000	0.002582	-3.854300E-5	-0.000928
9.880000	0.003538	0.000593	-0.000928
9.890000	0.002582	0.000593	-0.000609
9.900000	0.002264	-0.000354	-0.000928
9.910000	0.002901	-3.854300E-5	-0.000609
9.920000	0.002582	-3.854300E-5	-0.000609
9.930000	0.002582	-3.854300E-5	-0.000928
9.940000	0.003538	-3.854300E-5	-0.000290
9.950000	0.001945	-3.854300E-5	-0.000609
9.960000	0.002264	-0.000670	-0.000609
9.970000	0.002901	-0.000354	-0.000609
9.980000	0.002264	-0.000670	-0.000290
9.990000	0.002582	-3.854300E-5	-0.000928
10.000000	0.002264	-0.000354	2.840100E-5
10.010000	0.002582	-0.000354	2.840100E-5
10.020000	0.002582	-3.854300E-5	-0.000290
10.030000	0.002901	-3.854300E-5	-0.000290
10.040000	0.002582	-3.854300E-5	-0.000928
10.050000	0.002582	-0.000354	-0.000609
10.060000	0.002264	0.000277	-0.000928
10.070000	0.003219	-3.854300E-5	2.840100E-5
10.080000	0.002582	-0.000354	-0.000928
10.090000	0.002264	-3.854300E-5	-0.000290
10.100000	0.002582	-3.854300E-5	-0.000290
10.110000	0.002901	-0.000354	-0.000928
10.120000	0.002901	-3.854300E-5	-0.000290
10.130000	0.002582	0.001541	-0.000290
10.140000	0.002582	-0.000354	2.840100E-5
10.150000	0.002582	0.000909	-0.000290
10.160000	0.002582	-0.000354	-0.000609
10.170000	0.002901	0.000593	2.840100E-5
10.180000	0.002264	-3.854300E-5	-0.000609
10.190000	0.002901	-3.854300E-5	-0.000290
10.200000	0.002901	0.000593	-0.000609
10.210000	0.002582	-0.000354	-0.000928
10.220000	0.002582	0.000593	2.840100E-5
10.230000	0.001308	0.000277	-0.000609
10.240000	0.002264	-3.854300E-5	-0.000609
10.250000	0.002582	-3.854300E-5	0.000347
10.260000	0.002582	-3.854300E-5	-0.000290
10.270000	0.002582	0.000277	-0.000928
10.280000	0.002582	-3.854300E-5	-0.000928
10.290000	0.002264	0.000277	-0.000928
10.300000	0.002582	-3.854300E-5	-0.000290
10.310000	0.002264	-3.854300E-5	-0.000609
10.320000	0.002582	-3.854300E-5	-0.000290
10.330000	0.002264	-3.854300E-5	-0.000928
10.340000	0.002264	0.000277	-0.000928
10.350000	0.002582	0.000593	-0.000609
10.360000	0.002582	-3.854300E-5	-0.000609
10.370000	0.002582	0.000593	-0.000290
10.380000	0.002582	0.000277	-0.000928
10.390000	0.002901	-3.854300E-5	-0.000609
10.400000	0.002901	-3.854300E-5	-0.000290
10.410000	0.002582	-3.854300E-5	-0.000609
10.420000	0.002901	-3.854300E-5	-0.000928
10.430000	0.002901	0.000277	2.840100E-5
10.440000	0.002582	-3.854300E-5	-0.000928
10.450000	0.003219	-3.854300E-5	-0.000609
10.460000	0.002582	-3.854300E-5	-0.000290
10.470000	0.002582	-0.000354	-0.000609
10.480000	0.002582	-0.000354	-0.000609
10.490000	0.002264	0.000277	-0.000290
10.500000	0.002582	-3.854300E-5	-0.000928
10.510000	0.002901	0.000277	-0.000928
10.520000	0.003219	0.000277	0.000347
10.530000	0.001626	-3.854300E-5	-0.000609
10.540000	0.001945	-0.000354	-0.000290
10.550000	0.002582	0.000909	2.840100E-5
10.560000	0.002264	-0.000354	-0.000609
10.570000	0.003219	-0.000354	-0.000928
10.580000	0.002264	-3.854300E-5	-0.000609
10.590000	0.002582	-3.854300E-5	-0.000928
10.600000	0.002582	0.000277	-0.000928
10.610000	0.002582	-3.854300E-5	-0.000290
10.620000	0.002901	-3.854300E-5	-0.000609
10.630000	0.002264	-3.854300E-5	-0.000928
10.640000	0.002264	-3.854300E-5	-0.000290
10.650000	0.002582	0.000277	-0.000609
10.660000	0.001626	-3.854300E-5	-0.000609
10.670000	0.002264	-0.000354	-0.000609
10.680000	0.002582	0.000593	-0.000609
10.690000	0.002901	-0.000354	-0.000609
10.700000	0.002264	-3.854300E-5	-0.000290
10.710000	0.002264	-3.854300E-5	-0.001247
10.720000	0.002901	-3.854300E-5	-0.000928
10.730000	0.003219	0.000277	2.840100E-5
10.740000	0.002582	-0.000354	-0.000928
10.750000	0.002582	-0.000354	-0.000928
10.760000	0.002264	-3.854300E-5	-0.000609
10.770000	0.002264	-3.854300E-5	-0.000928
10.780000	0.002264	-0.000354	-0.000928
10.790000	0.002901	-0.000354	-0.000290
10.800000	0.002901	-0.000670	-0.000928
10.810000	0.002901	-3.854300E-5	-0.000290
10.820000	0.002901	0.000909	2.840100E-5
10.830000	0.002582	-3.854300E-5	-0.000609
10.840000	0.002264	-0.000354	-0.000928
10.850000	0.002901	0.000593	-0.000290
10.860000	0.002582	-0.000670	-0.000928
10.870000	0.002264	-3.854300E-5	-0.000609
10.880000	0.002264	-3.854300E-5	-0.000609
10.890000	0.002264	-0.000354	-0.000928
10.900000	0.002264	-0.000354	-0.000609
10.910000	0.002901	-3.854300E-5	-0.000609
10.920000	0.002264	-0.000354	-0.000928
10.930000	0.002264	-3.854300E-5	-0.001566
10.940000	0.002582	0.000277	-0.000290
10.950000	0.002582	-3.854300E-5	-0.000609
10.960000	0.002582	-0.000670	-0.001566
10.970000	0.002901	-3.854300E-5	-0.000290
10.980000	0.001945	-0.000354	-0.000609
10.990000	0.001945	-0.000354	-0.000609
11.000000	0.002901	0.000277	2.840100E-5
11.010000	0.002264	-3.854300E-5	-0.000609
11.020000	0.002264	-3.854300E-5	-0.000928
11.030000	0.002901	0.000277	-0.000609
11.040000	0.002264	-3.854300E-5	-0.000290
11.050000	0.002264	-0.000354	-0.000928
11.060000	0.002264	0.000593	-0.001247
11.070000	0.002264	-3.854300E-5	-0.000928
11.080000	0.002582	-0.000354	-0.000928
11.090000	0.002264	-3.854300E-5	-0.000928
11.100000	0.002582	-0.000670	-0.001247
11.110000	0.002582	-3.854300E-5	-0.000609
11.120000	0.002901	-3.854300E-5	-0.000609
11.130000	0.002901	-0.000354	-0.000609
11.140000	0.002582	0.000277	-0.000928
11.150000	0.002901	0.000277	-0.000609
11.160000	0.001945	0.000277	2.840100E-5
11.170000	0.002901	-3.854300E-5	-0.000290
11.180000	0.002901	-0.000354	-0.000928
11.190000	0.002901	-0.000354	-0.000290
11.200000	0.002582	-0.000354	-0.001247
11.210000	0.001945	-3.854300E-5	-0.000290
11.220000	0.003538	0.000277	-0.000609
11.230000	0.002582	-3.854300E-5	-0.000928
11.240000	0.002901	-3.854300E-5	-0.000609
11.250000	0.002582	-0.000354	-0.000609
11.260000	0.002582	-3.854300E-5	-0.000290
11.270000	0.001945	-0.000354	-0.000290
11.280000	0.002901	0.000277	-0.000609
11.290000	0.002264	-3.854300E-5	-0.000609
11.300000	0.002264	-3.854300E-5	-0.000290
11.310000	0.002582	0.000593	-0.000290
11.320000	0.001945	-3.854300E-5	-0.000609
11.330000	0.002901	0.000909	2.840100E-5
11.340000	0.002264	-3.854300E-5	-0.000928
11.350000	0.002264	-0.000354	-0.000928
11.360000	0.002264	-0.000354	-0.000928
11.370000	0.002582	-3.854300E-5	-0.000609
11.380000	0.002264	-0.000354	-0.000928
11.390000	0.002582	-3.854300E-5	-0.000928
11.400000	0.002901	-0.000354	-0.000290
11.410000	0.002901	-3.854300E-5	-0.000928
11.420000	0.002901	-0.000354	-0.000928
11.430000	0.003219	-3.854300E-5	2.840100E-5
11.440000	0.002901	-3.854300E-5	-0.000928
11.450000	0.002901	-3.854300E-5	-0.000290
11.460000	0.002264	0.000277	-0.000290
11.470000	0.002901	-0.000354	-0.000928
11.480000	0.002901	-3.854300E-5	-0.000609
11.490000	0.002264	0.000277	-0.000609
11.500000	0.002264	0.000277	-0.000290
11.510000	0.002582	-3.854300E-5	-0.001247
11.520000	0.002901	0.000593	-0.000290
11.530000	0.002582	-3.854300E-5	-0.000609
11.540000	0.002582	-3.854300E-5	-0.000928
11.550000	0.002264	0.000277	-0.000609
11.560000	0.002582	-3.854300E-5	-0.000609
11.570000	0.002264	-0.000670	-0.000609
11.580000	0.002264	-0.000354	-0.000928
11.590000	0.002582	-3.854300E-5	-0.000609
11.600000	0.002582	-0.000354	-0.000928
11.610000	0.002582	-0.000354	-0.000609
11.620000	0.002582	-0.000354	-0.000609
11.630000	0.002901	-0.000354	-0.000290
11.640000	0.002582	-3.854300E-5	-0.000609
11.650000	0.002264	-0.000670	-0.000290
11.660000	0.002582	-0.000354	-0.000609
11.670000	0.002901	0.000277	-0.000928
11.680000	0.002901	-3.854300E-5	-0.000609
11.690000	0.002901	-0.000354	-0.000928
11.700000	0.002582	0.000277	-0.000290
11.710000	0.002264	0.000277	-0.000290
11.720000	0.001945	0.000909	2.840100E-5
11.730000	0.001945	0.000909	-0.000290
11.740000	0.002582	0.000277	-0.000290
11.750000	0.002582	0.000593	-0.000928
11.760000	0.002582	-0.000354	-0.000928
11.770000	0.002582	-3.854300E-5	2.840100E-5
11.780000	0.002582	-3.854300E-5	-0.000609
11.790000	0.002582	0.000277	-0.000290
11.800000	0.002264	-3.854300E-5	-0.000928
11.810000	0.002264	0.000593	-0.000609
11.820000	0.002901	-3.854300E-5	-0.000290
11.830000	0.002582	-3.854300E-5	2.840100E-5
11.840000	0.002264	-3.854300E-5	-0.001566
11.850000	0.002901	-3.854300E-5	-0.000609
11.860000	0.002901	0.000593	-0.000290
11.870000	0.002582	0.000593	-0.000609
11.880000	0.002901	-3.854300E-5	-0.000928
11.890000	0.002582	-3.854300E-5	-0.000609
11.900000	0.002264	0.000593	0.000347
11.910000	0.002901	-0.000354	-0.000609
11.920000	0.002901	-0.000354	2.840100E-5
11.930000	0.002901	-3.854300E-5	-0.000928
11.940000	0.002582	0.000593	2.840100E-5
11.950000	0.002901	0.000277	-0.000290
11.960000	0.003219	0.000593	-0.000609
11.970000	0.002901	-3.854300E-5	-0.000609
11.980000	0.002901	-0.000354	-0.000290
11.990000	0.002582	-0.000354	-0.000609
12.000000	0.003219	-0.000354	-0.000290
12.010000	0.001945	0.000277	-0.000609
12.020000	0.002264	-0.000354	-0.000609
12.030000	0.002582	0.000277	-0.000609
12.040000	0.002901	-3.854300E-5	-0.001247
12.050000	0.002264	-0.000354	-0.000290
12.060000	0.002264	-0.000354	-0.000928
12.070000	0.002901	-3.854300E-5	-0.000290
12.080000	0.002901	-3.854300E-5	-0.000609
12.090000	0.002901	-3.854300E-5	-0.000609
12.100000	0.002582	0.000277	-0.000290
12.110000	0.001945	-0.000354	-0.000928
12.120000	0.002582	-3.854300E-5	-0.000609
12.130000	0.002901	-3.854300E-5	-0.000609
12.140000	0.002582	-0.000354	-0.000609
12.150000	0.002901	-3.854300E-5	-0.000609
12.160000	0.001945	-3.854300E-5	-0.000290
12.170000	0.002901	0.000593	0.000347
12.180000	0.002901	-3.854300E-5	-0.000928
12.190000	0.002582	-0.000354	-0.000290
12.200000	0.003219	0.000909	2.840100E-5
12.210000	0.002582	0.000593	-0.000290
12.220000	0.002264	-3.854300E-5	-0.000609
12.230000	0.002582	0.000277	2.840100E-5
12.240000	0.001945	-3.854300E-5	-0.000928
12.250000	0.002264	-3.854300E-5	-0.000928
12.260000	0.002582	0.000593	-0.000609
12.270000	0.001626	-0.000354	-0.001247
12.280000	0.002901	-3.854300E-5	-0.000609
12.290000	0.002264	-3.854300E-5	-0.000609
12.300000	0.002264	-3.854300E-5	-0.000928
12.310000	0.002582	0.000593	-0.000290
12.320000	0.002264	0.000277	2.840100E-5
12.330000	0.003219	0.000593	2.840100E-5
12.340000	0.002901	0.000277	-0.000290
12.350000	0.002901	-3.854300E-5	-0.000609
12.360000	0.002264	-3.854300E-5	-0.000609
12.370000	0.002264	0.000593	-0.000928
12.380000	0.002582	0.000593	2.840100E-5
12.390000	0.002582	-0.000354	-0.000609
12.400000	0.002582	0.000277	-0.000290
12.410000	0.002582	0.000593	-0.000928
12.420000	0.002264	0.000593	-0.000609
12.430000	0.002582	-0.000354	-0.000609
12.440000	0.002582	0.000593	-0.000609
12.450000	0.002582	-3.854300E-5	-0.000609
12.460000	0.002582	-3.854300E-5	-0.000928
12.470000	0.002264	-0.000354	2.840100E-5
12.480000	0.002264	-3.854300E-5	-0.000290
12.490000	0.001945	0.000277	-0.001247
12.500000	0.002582	0.001225	2.840100E-5
12.510000	0.001945	-0.000354	-0.001566
12.520000	0.003538	-3.854300E-5	2.840100E-5
12.530000	0.002264	-3.854300E-5	-0.000609
12.540000	0.002901	-0.000354	-0.000928
12.550000	0.002901	-3.854300E-5	-0.000609
12.560000	0.002582	0.000277	-0.000609
12.570000	0.002264	0.000277	-0.000290
12.580000	0.002582	-0.000354	-0.000609
12.590000	0.002582	-0.000354	-0.000928
12.600000	0.002264	-0.000354	2.840100E-5
12.610000	0.002901	-3.854300E-5	-0.000928
12.620000	0.002901	0.000277	-0.000609
12.630000	0.002901	-3.854300E-5	-0.000609
12.640000	0.002901	-3.854300E-5	-0.000290
12.650000	0.002264	-3.854300E-5	-0.000928
12.660000	0.002582	-3.854300E-5	2.840100E-5
12.670000	0.001945	-3.854300E-5	2.840100E-5
12.680000	0.002901	0.000909	-0.000290
12.690000	0.002582	-0.000354	-0.000609
12.700000	0.002901	0.000593	2.840100E-5
12.710000	0.002582	0.000277	-0.000609
12.720000	0.002582	0.000909	2.840100E-5
12.730000	0.003219	-0.000354	-0.000609
12.740000	0.002901	0.000593	0.000347
12.750000	0.002901	0.000593	-0.000290
12.760000	0.002264	0.000277	-0.000609
12.770000	0.002901	0.000593	0.000347
12.780000	0.002582	0.000277	0.000347
12.790000	0.002264	0.000277	-0.000928
12.800000	0.002901	-3.854300E-5	-0.000609
12.810000	0.002582	0.000593	0.000347
12.820000	0.002901	-0.000354	-0.000290
12.830000	0.002901	0.000277	-0.000609
12.840000	0.002582	0.000277	-0.000290
12.850000	0.003219	0.000909	-0.000609
12.860000	0.002582	-3.854300E-5	-0.000290
12.870000	0.002901	0.000909	0.000347
12.880000	0.002582	0.000593	-0.000290
12.890000	0.002901	-0.000354	-0.000928
12.900000	0.003538	0.000593	0.000347
12.910000	0.002901	-0.000354	-0.000609
12.920000	0.002264	0.000593	-0.000290
12.930000	0.002582	0.000277	-0.000609
12.940000	0.002582	-3.854300E-5	-0.000609
12.950000	0.002264	0.000277	-0.000290
12.960000	0.002901	-0.000354	2.840100E-5
12.970000	0.002264	-3.854300E-5	-0.000928
12.980000	0.002582	-3.854300E-5	-0.000290
12.990000	0.002264	0.000593	0.000347
13.000000	0.002901	0.000277	-0.000928
13.010000	0.001945	-3.854300E-5	-0.000290
13.020000	0.002901	0.000277	2.840100E-5
13.030000	0.003219	-0.000354	-0.000609
13.040000	0.002901	-3.854300E-5	-0.000609
13.050000	0.002901	-3.854300E-5	-0.000290
13.060000	0.002901	-3.854300E-5	-0.000609
13.070000	0.002582	0.000593	-0.000609
13.080000	0.003219	0.000277	-0.000290
13.090000	0.002901	-3.854300E-5	-0.000290
13.100000	0.002901	0.000277	-0.000609
13.110000	0.002901	0.000277	-0.000290
13.120000	0.002582	-3.854300E-5	-0.000609
13.130000	0.002264	-0.000354	-0.000609
13.140000	0.002901	-3.854300E-5	-0.000290
13.150000	0.003219	-3.854300E-5	-0.000290
13.160000	0.002264	0.000593	-0.001247
13.170000	0.001945	0.000277	-0.000290
13.180000	0.002901	-3.854300E-5	-0.000609
13.190000	0.002264	0.000593	-0.000290
13.200000	0.002582	0.000277	0.000347
13.210000	0.002264	-3.854300E-5	-0.001247
13.220000	0.002582	0.000277	-0.000290
13.230000	0.002582	0.000593	-0.000290
13.240000	0.002582	-3.854300E-5	-0.001247
13.250000	0.002901	0.000277	-0.000290
13.260000	0.002582	0.000277	-0.000290
13.270000	0.002264	-3.854300E-5	-0.000609
13.280000	0.002901	0.000277	-0.000609
13.290000	0.001945	-3.854300E-5	2.840100E-5
13.300000	0.003219	-3.854300E-5	-0.000290
13.310000	0.002582	-3.854300E-5	-0.000928
13.320000	0.002901	0.001225	-0.000290
13.330000	0.002264	-3.854300E-5	-0.000290
13.340000	0.002582	0.000593	-0.000290
13.350000	0.003538	-0.000354	2.840100E-5
13.360000	0.002264	0.000593	-0.000290
13.370000	0.002901	0.000277	-0.000928
13.380000	0.002582	0.000593	-0.000609
13.390000	0.002582	-0.000354	-0.000290
13.400000	0.003219	-0.000354	-0.000609
13.410000	0.002582	0.000593	2.840100E-5
13.420000	0.002264	-3.854300E-5	-0.000290
13.430000	0.002582	-0.000354	-0.001247
13.440000	0.002582	-3.854300E-5	-0.000928
13.450000	0.002901	-0.000354	-0.000609
13.460000	0.002264	-3.854300E-5	-0.000609
13.470000	0.002901	-3.854300E-5	-0.000290
13.480000	0.002582	0.000277	-0.000290
13.490000	0.002582	-0.000670	-0.000609
13.500000	0.002582	-0.000670	-0.000290
13.510000	0.002582	-3.854300E-5	0.000347
13.520000	0.002901	-3.854300E-5	2.840100E-5
13.530000	0.002901	0.000909	2.840100E-5
13.540000	0.002264	-3.854300E-5	-0.000290
13.550000	0.002901	-3.854300E-5	2.840100E-5
13.560000	0.002582	0.000277	-0.000609
13.570000	0.003219	-3.854300E-5	2.840100E-5
13.580000	0.002582	-3.854300E-5	-0.000609
13.590000	0.002582	-3.854300E-5	-0.000928
13.600000	0.002264	-3.854300E-5	0.000347
13.610000	0.001945	-0.000354	-0.001247
13.620000	0.002582	-3.854300E-5	2.840100E-5
13.630000	0.002582	0.000277	2.840100E-5
13.640000	0.002582	-3.854300E-5	-0.000609
13.650000	0.003219	-0.000354	-0.000290
13.660000	0.001945	0.000277	2.840100E-5
13.670000	0.002582	-3.854300E-5	2.840100E-5
13.680000	0.002582	0.000593	-0.000290
13.690000	0.002901	-3.854300E-5	-0.000609
13.700000	0.002264	-3.854300E-5	-0.000290
13.710000	0.003219	-3.854300E-5	-0.000609
13.720000	0.003219	-3.854300E-5	-0.000290
13.730000	0.002264	-3.854300E-5	-0.000290
13.740000	0.002582	0.000277	-0.001247
13.750000	0.002264	0.000909	2.840100E-5
13.760000	0.002582	-0.000354	-0.000290
13.770000	0.002264	-0.000354	-0.000928
13.780000	0.001945	-3.854300E-5	-0.000609
13.790000	0.002582	0.000277	-0.000609
13.800000	0.001626	-3.854300E-5	-0.000609
13.810000	0.002901	-3.854300E-5	-0.000928
13.820000	0.002582	-3.854300E-5	-0.000290
13.830000	0.002264	-0.000354	-0.001247
13.840000	0.001945	-3.854300E-5	-0.000609
13.850000	0.002582	-3.854300E-5	0.000347
13.860000	0.002582	-3.854300E-5	-0.000928
13.870000	0.002582	0.000277	-0.000290
13.880000	0.002264	-3.854300E-5	-0.000609
13.890000	0.002264	-3.854300E-5	-0.000609
13.900000	0.002264	-3.854300E-5	2.840100E-5
13.910000	0.002264	-0.000354	-0.000609
13.920000	0.002582	-3.854300E-5	-0.001247
13.930000	0.002582	-3.854300E-5	-0.000928
13.940000	0.002264	-3.854300E-5	-0.000609
13.950000	0.002901	-3.854300E-5	-0.000609
13.960000	0.002582	-3.854300E-5	-0.000928
13.970000	0.002901	0.000277	-0.000609
13.980000	0.002264	-3.854300E-5	-0.000609
13.990000	0.002264	0.000593	-0.000609
14.000000	0.002582	-3.854300E-5	-0.000928
14.010000	0.001945	-3.854300E-5	-0.000928
14.020000	0.002582	0.000593	-0.000609
14.030000	0.002264	0.000593	-0.000290
14.040000	0.002264	-3.854300E-5	-0.001566
14.050000	0.002582	-0.000354	-0.000290
14.060000	0.002582	-3.854300E-5	-0.001247
14.070000	0.002264	-0.000354	-0.000609
14.080000	0.002264	-0.000354	-0.000928
14.090000	0.002582	-3.854300E-5	-0.000290
14.100000	0.002264	-3.854300E-5	-0.000928
14.110000	0.002901	0.000277	-0.001247
14.120000	0.002901	-0.000354	-0.000290
14.130000	0.001945	-3.854300E-5	-0.000928
14.140000	0.002264	-0.000354	-0.000609
14.150000	0.002582	-0.000354	-0.000290
14.160000	0.002901	-3.854300E-5	-0.000928
14.170000	0.002582	-3.854300E-5	2.840100E-5
14.180000	0.003219	-3.854300E-5	-0.000928
14.190000	0.002264	-3.854300E-5	-0.000928
14.200000	0.002901	0.000277	-0.000928
14.210000	0.002582	-3.854300E-5	-0.001566
14.220000	0.002901	-3.854300E-5	-0.000609
14.230000	0.002264	-0.000354	-0.000290
14.240000	0.002264	-0.000354	-0.000928
14.250000	0.002582	-0.000354	-0.000928
14.260000	0.002582	-0.000354	-0.000609
14.270000	0.002264	-3.854300E-5	-0.000928
14.280000	0.002582	-3.854300E-5	-0.000609
14.290000	0.003219	-3.854300E-5	-0.000609
14.300000	0.002264	-0.000354	2.840100E-5
14.310000	0.001945	-0.000354	-0.000928
14.320000	0.002901	0.000277	-0.000609
14.330000	0.001945	-3.854300E-5	0.000347
14.340000	0.002582	-0.000354	-0.000928
14.350000	0.002582	-0.000354	-0.001247
14.360000	0.002264	-3.854300E-5	-0.000928
14.370000	0.002264	-0.000354	-0.000290
14.380000	0.002582	0.000909	-0.000290
14.390000	0.002582	-3.854300E-5	-0.000928
14.400000	0.001945	0.000277	-0.000609
14.410000	0.002264	-0.000354	-0.000609
14.420000	0.002264	-3.854300E-5	2.840100E-5
14.430000	0.002582	-0.000354	-0.000928
14.440000	0.002582	0.000593	-0.000609
14.450000	0.002901	-3.854300E-5	-0.000928
14.460000	0.002582	-3.854300E-5	-0.000609
14.470000	0.002582	-0.000354	-0.000609
14.480000	0.003538	-3.854300E-5	-0.000609
14.490000	0.002582	-3.854300E-5	-0.000928
14.500000	0.002901	-0.000354	-0.000290
14.510000	0.002582	-0.000354	-0.000609
14.520000	0.002264	-3.854300E-5	-0.000290
14.530000	0.002582	-0.000354	-0.000609
14.540000	0.002264	0.000277	-0.000290
14.550000	0.002901	-3.854300E-5	-0.000928
14.560000	0.002901	-0.000354	-0.000290
14.570000	0.002901	-0.000354	-0.000928
14.580000	0.002582	-3.854300E-5	-0.000928
14.590000	0.002582	-0.000354	-0.000609
14.600000	0.003219	0.000277	-0.000609
14.610000	0.002901	-3.854300E-5	-0.000928
14.620000	0.002264	0.000277	-0.000290
14.630000	0.002901	-3.854300E-5	-0.000290
14.640000	0.002582	-0.000354	-0.000609
14.650000	0.002901	0.000909	2.840100E-5
14.660000	0.003538	-3.854300E-5	2.840100E-5
14.670000	0.002582	-0.000354	-0.000609
14.680000	0.002582	-3.854300E-5	2.840100E-5
14.690000	0.003219	0.000277	-0.000290
14.700000	0.002582	0.000277	-0.000609
14.710000	0.002264	-0.000354	-0.000928
14.720000	0.002264	-3.854300E-5	-0.000290
14.730000	0.002264	-3.854300E-5	-0.000928
14.740000	0.002264	-3.854300E-5	-0.000609
14.750000	0.002582	-3.854300E-5	-0.000609
14.760000	0.002901	-3.854300E-5	-0.000290
14.770000	0.002582	-3.854300E-5	-0.000928
14.780000	0.002901	0.000593	-0.000290
14.790000	0.002582	0.000277	-0.000290
14.800000	0.002582	0.000277	-0.000609
14.810000	0.003219	-3.854300E-5	0.000347
14.820000	0.002582	0.000277	-0.000609
14.830000	0.003219	-0.000354	-0.000290
14.840000	0.002264	-3.854300E-5	-0.000928
14.850000	0.002264	-0.000670	-0.001566
14.860000	0.002264	-0.000354	-0.000609
14.870000	0.002901	-3.854300E-5	-0.000290
14.880000	0.002582	0.000277	-0.000609
14.890000	0.002901	-0.000354	-0.000609
14.900000	0.002582	0.000593	-0.000290
14.910000	0.003219	-3.854300E-5	-0.001247
14.920000	0.002901	-3.854300E-5	-0.000290
14.930000	0.002901	0.000593	2.840100E-5
14.940000	0.002901	-3.854300E-5	-0.001247
14.950000	0.002582	-3.854300E-5	-0.000290
14.960000	0.002901	0.000593	-0.000290
14.970000	0.002264	0.000593	-0.000609
14.980000	0.003219	-3.854300E-5	-0.000609
14.990000	0.002582	0.000277	-0.000290
15.000000	0.002582	-0.000354	-0.000609
15.010000	0.002264	-0.000354	-0.000290
15.020000	0.002264	-3.854300E-5	-0.000290
15.030000	0.002901	-3.854300E-5	-0.000928
15.040000	0.003219	-0.000354	-0.000609
15.050000	0.002582	0.000593	2.840100E-5
15.060000	0.002264	-3.854300E-5	-0.000609
15.070000	0.002264	-0.000670	-0.001247
15.080000	0.003219	0.000593	0.000347
15.090000	0.002582	0.000277	-0.000609
15.100000	0.002901	-0.000354	2.840100E-5
15.110000	0.002901	-3.854300E-5	-0.000609
15.120000	0.002264	-3.854300E-5	-0.000609
15.130000	0.002264	0.000277	-0.000928
15.140000	0.001945	-0.000354	-0.000609
15.150000	0.002264	-3.854300E-5	-0.000290
15.160000	0.002582	-3.854300E-5	-0.001566
15.170000	0.001945	-0.000354	-0.000609
15.180000	0.002264	-3.854300E-5	2.840100E-5
15.190000	0.002901	-3.854300E-5	-0.000609
15.200000	0.002901	-3.854300E-5	-0.000290
15.210000	0.002901	-0.000354	-0.000609
15.220000	0.002582	-3.854300E-5	-0.000609
15.230000	0.002901	-3.854300E-5	-0.000609
15.240000	0.002582	0.000277	-0.000290
15.250000	0.002901	-3.854300E-5	-0.000290
15.260000	0.002582	-3.854300E-5	-0.000609
15.270000	0.003219	-0.000354	-0.000609
15.280000	0.002582	-0.000354	2.840100E-5
15.290000	0.002901	0.000277	-0.000609
15.300000	0.002582	0.000277	2.840100E-5
15.310000	0.002264	0.000593	-0.000609
15.320000	0.002582	-3.854300E-5	-0.000290
15.330000	0.001945	0.000593	2.840100E-5
15.340000	0.002582	0.000277	-0.000290
15.350000	0.002582	-0.000354	2.840100E-5
15.360000	0.002901	-3.854300E-5	-0.000609
15.370000	0.002264	0.000277	-0.000609
15.380000	0.002901	-3.854300E-5	-0.000609
15.390000	0.002582	0.000593	0.000347
15.400000	0.003219	0.000277	-0.000609
15.410000	0.002582	-3.854300E-5	-0.000290
15.420000	0.002901	-3.854300E-5	-0.000609
15.430000	0.002582	0.000277	2.840100E-5
15.440000	0.002901	-3.854300E-5	-0.000609
15.450000	0.002901	0.000593	2.840100E-5
15.460000	0.002582	0.000277	-0.001247
15.470000	0.002264	0.000277	-0.000928
15.480000	0.003219	0.000593	0.000347
15.490000	0.002582	0.000277	-0.000928
15.500000	0.003219	0.000277	-0.000290
15.510000	0.002582	0.000277	-0.000290
15.520000	0.002582	0.000277	-0.000609
15.530000	0.002264	-0.000354	-0.000609
15.540000	0.002582	-3.854300E-5	-0.000609
15.550000	0.002582	0.000593	2.840100E-5
15.560000	0.002264	-3.854300E-5	-0.000609
15.570000	0.002901	-3.854300E-5	-0.000290
15.580000	0.002582	0.000277	-0.000290
15.590000	0.001945	-0.000354	-0.001566
15.600000	0.002582	0.000593	0.000347
15.610000	0.002582	-3.854300E-5	-0.000609
15.620000	0.003219	-3.854300E-5	-0.000290
15.630000	0.002264	0.000593	0.000347
15.640000	0.002582	-3.854300E-5	-0.000290
15.650000	0.002582	-3.854300E-5	-0.000928
15.660000	0.002582	-3.854300E-5	-0.000290
15.670000	0.002264	0.000593	-0.000928
15.680000	0.002582	-3.854300E-5	-0.000609
15.690000	0.002264	-3.854300E-5	-0.000290
15.700000	0.002264	0.000277	-0.000609
15.710000	0.002264	-3.854300E-5	-0.001247
15.720000	0.002264	0.000593	-0.000609
15.730000	0.002264	-0.000354	-0.000290
15.740000	0.002582	-0.000354	-0.000609
15.750000	0.002901	0.000593	-0.000290
15.760000	0.002582	-3.854300E-5	-0.000609
15.770000	0.002582	0.000593	-0.000609
15.780000	0.002264	0.000277	-0.000609
15.790000	0.002264	-0.000354	-0.000609
15.800000	0.001626	0.000277	-0.000609
15.810000	0.002901	0.000277	-0.000290
15.820000	0.002264	-3.854300E-5	-0.000290
15.830000	0.002901	-0.000354	-0.000609
15.840000	0.002582	-3.854300E-5	-0.000290
15.850000	0.002901	0.000277	-0.000290
15.860000	0.002582	-0.000354	-0.000928
15.870000	0.002582	-3.854300E-5	-0.000609
15.880000	0.002582	-0.000670	2.840100E-5
15.890000	0.002264	-3.854300E-5	-0.000928
15.900000	0.002901	0.000593	-0.000290
15.910000	0.002264	-0.000354	-0.000928
15.920000	0.001945	-3.854300E-5	-0.000609
15.930000	0.002901	0.000277	-0.000290
15.940000	0.002582	-3.854300E-5	-0.000290
15.950000	0.002582	-3.854300E-5	-0.000609
15.960000	0.002582	-3.854300E-5	-0.000609
15.970000	0.002582	-3.854300E-5	-0.000290
15.980000	0.002582	-3.854300E-5	-0.000609
15.990000	0.002901	-3.854300E-5	0.000347

